Sample,Time(S),CH1(V),CH2(V)
0,-0.0016,0.068312,-1.56055
1,-0.001599,0.068312,-1.56055
2,-0.001598,0.068312,-1.55903
3,-0.001597,0.068312,-1.55751
4,-0.001596,0.068312,-1.556
5,-0.001595,0.068312,-1.55448
6,-0.001594,0.068312,-1.55296
7,-0.001593,0.068312,-1.55144
8,-0.001592,0.0652759,-1.55144
9,-0.001591,0.0637579,-1.54841
10,-0.00159,0.0652759,-1.54689
11,-0.001589,0.0637579,-1.54233
12,-0.001588,0.0667939,-1.54233
13,-0.001587,0.0667939,-1.53778
14,-0.001586,0.0637579,-1.53626
15,-0.001585,0.0607218,-1.53322
16,-0.001584,0.0607218,-1.53322
17,-0.001583,0.0607218,-1.53019
18,-0.001582,0.0607218,-1.52715
19,-0.001581,0.0622398,-1.52412
20,-0.00158,0.0622398,-1.52108
21,-0.001579,0.0622398,-1.51653
22,-0.001578,0.0622398,-1.51501
23,-0.001577,0.0622398,-1.51197
24,-0.001576,0.0622398,-1.50894
25,-0.001575,0.0622398,-1.50742
26,-0.001574,0.0576857,-1.50438
27,-0.001573,0.0592037,-1.50135
28,-0.001572,0.0592037,-1.49831
29,-0.001571,0.0561676,-1.49376
30,-0.00157,0.0592037,-1.49072
31,-0.001569,0.0546496,-1.48768
32,-0.001568,0.0546496,-1.48617
33,-0.001567,0.0561676,-1.48009
34,-0.001566,0.0561676,-1.47706
35,-0.001565,0.0561676,-1.47402
36,-0.001564,0.0561676,-1.46947
37,-0.001563,0.0561676,-1.46491
38,-0.001562,0.0561676,-1.46188
39,-0.001561,0.0531316,-1.45884
40,-0.00156,0.0546496,-1.4558
41,-0.001559,0.0500955,-1.45277
42,-0.001558,0.0516135,-1.44821
43,-0.001557,0.0516135,-1.44214
44,-0.001556,0.0516135,-1.44062
45,-0.001555,0.0516135,-1.43455
46,-0.001554,0.0485774,-1.43152
47,-0.001553,0.0485774,-1.42544
48,-0.001552,0.0500955,-1.42089
49,-0.001551,0.0470594,-1.41785
50,-0.00155,0.0485774,-1.41178
51,-0.001549,0.0485774,-1.40723
52,-0.001548,0.0485774,-1.40571
53,-0.001547,0.0485774,-1.39812
54,-0.001546,0.0485774,-1.39356
55,-0.001545,0.0485774,-1.39053
56,-0.001544,0.0425052,-1.38446
57,-0.001543,0.0440233,-1.38142
58,-0.001542,0.0440233,-1.37535
59,-0.001541,0.0440233,-1.37079
60,-0.00154,0.0409872,-1.36624
61,-0.001539,0.0409872,-1.36017
62,-0.001538,0.0409872,-1.35258
63,-0.001537,0.0394692,-1.34954
64,-0.001536,0.0379511,-1.34347
65,-0.001535,0.0409872,-1.3374
66,-0.001534,0.0409872,-1.33284
67,-0.001533,0.0409872,-1.32677
68,-0.001532,0.0409872,-1.3207
69,-0.001531,0.034915,-1.31766
70,-0.00153,0.0364331,-1.31007
71,-0.001529,0.034915,-1.304
72,-0.001528,0.0379511,-1.30096
73,-0.001527,0.033397,-1.29337
74,-0.001526,0.033397,-1.28578
75,-0.001525,0.033397,-1.28123
76,-0.001524,0.033397,-1.27516
77,-0.001523,0.033397,-1.26757
78,-0.001522,0.033397,-1.26301
79,-0.001521,0.033397,-1.25694
80,-0.00152,0.033397,-1.25087
81,-0.001519,0.033397,-1.2448
82,-0.001518,0.0303609,-1.23721
83,-0.001517,0.0303609,-1.23417
84,-0.001516,0.0273248,-1.22506
85,-0.001515,0.0288428,-1.21747
86,-0.001514,0.0273248,-1.21292
87,-0.001513,0.0273248,-1.20533
88,-0.001512,0.0258068,-1.19925
89,-0.001511,0.0258068,-1.19166
90,-0.00151,0.0273248,-1.18559
91,-0.001509,0.0258068,-1.17952
92,-0.001508,0.0273248,-1.17193
93,-0.001507,0.0242887,-1.16586
94,-0.001506,0.0242887,-1.15827
95,-0.001505,0.0242887,-1.1522
96,-0.001504,0.0242887,-1.14461
97,-0.001503,0.0242887,-1.13702
98,-0.001502,0.0197346,-1.13094
99,-0.001501,0.0197346,-1.12335
100,-0.0015,0.0182165,-1.11424
101,-0.001499,0.0182165,-1.10817
102,-0.001498,0.0182165,-1.10058
103,-0.001497,0.0182165,-1.09299
104,-0.001496,0.0182165,-1.0854
105,-0.001495,0.0197346,-1.07933
106,-0.001494,0.0166985,-1.07022
107,-0.001493,0.0151804,-1.06567
108,-0.001492,0.0151804,-1.05504
109,-0.001491,0.0151804,-1.04897
110,-0.00149,0.0151804,-1.0429
111,-0.001489,0.0106263,-1.03379
112,-0.001488,0.0121444,-1.02468
113,-0.001487,0.0121444,-1.01861
114,-0.001486,0.0106263,-1.0095
115,-0.001485,0.0121444,-1.00343
116,-0.001484,0.0121444,-0.994319
117,-0.001483,0.0106263,-0.986729
118,-0.001482,0.0106263,-0.979139
119,-0.001481,0.00910827,-0.971548
120,-0.00148,0.00910827,-0.96244
121,-0.001479,0.00759022,-0.956368
122,-0.001478,0.00759022,-0.945742
123,-0.001477,0.00455413,-0.938151
124,-0.001476,0.00607218,-0.930561
125,-0.001475,0.00607218,-0.918417
126,-0.001474,0.00607218,-0.912345
127,-0.001473,0.00607218,-0.904754
128,-0.001472,0.00607218,-0.894128
129,-0.001471,0.00455413,-0.886538
130,-0.00147,0.00455413,-0.878948
131,-0.001469,0.00151804,-0.869839
132,-0.001468,0.00303609,-0.862249
133,-0.001467,0.00151804,-0.853141
134,-0.001466,0,-0.845551
135,-0.001465,0,-0.834924
136,-0.001464,0,-0.825816
137,-0.001463,0,-0.816708
138,-0.001462,0,-0.809118
139,-0.001461,-0.00303609,-0.798491
140,-0.00146,-0.00303609,-0.790901
141,-0.001459,-0.00455413,-0.784829
142,-0.001458,-0.00455413,-0.774203
143,-0.001457,-0.00455413,-0.765094
144,-0.001456,-0.00607218,-0.754468
145,-0.001455,-0.00455413,-0.746878
146,-0.001454,-0.00759022,-0.73777
147,-0.001453,-0.00759022,-0.727143
148,-0.001452,-0.00910827,-0.718035
149,-0.001451,-0.00759022,-0.708927
150,-0.00145,-0.00910827,-0.699818
151,-0.001449,-0.00910827,-0.689192
152,-0.001448,-0.00759022,-0.680084
153,-0.001447,-0.00759022,-0.672494
154,-0.001446,-0.00607218,-0.661867
155,-0.001445,-0.00910827,-0.654277
156,-0.001444,-0.00910827,-0.646687
157,-0.001443,-0.00910827,-0.637579
158,-0.001442,-0.0121444,-0.62847
159,-0.001441,-0.0121444,-0.617844
160,-0.00144,-0.0121444,-0.610254
161,-0.001439,-0.0121444,-0.601146
162,-0.001438,-0.0121444,-0.592037
163,-0.001437,-0.0121444,-0.582929
164,-0.001436,-0.0121444,-0.573821
165,-0.001435,-0.0136624,-0.564712
166,-0.001434,-0.0166985,-0.55864
167,-0.001433,-0.0166985,-0.548014
168,-0.001432,-0.0166985,-0.537388
169,-0.001431,-0.0166985,-0.531316
170,-0.00143,-0.0197346,-0.520689
171,-0.001429,-0.0166985,-0.510063
172,-0.001428,-0.0197346,-0.502473
173,-0.001427,-0.0197346,-0.491846
174,-0.001426,-0.0197346,-0.48122
175,-0.001425,-0.0197346,-0.475148
176,-0.001424,-0.0182165,-0.464522
177,-0.001423,-0.0212526,-0.453895
178,-0.001422,-0.0212526,-0.444787
179,-0.001421,-0.0197346,-0.438715
180,-0.00142,-0.0227707,-0.42657
181,-0.001419,-0.0258068,-0.417462
182,-0.001418,-0.0258068,-0.406836
183,-0.001417,-0.0273248,-0.397728
184,-0.001416,-0.0273248,-0.387101
185,-0.001415,-0.0273248,-0.377993
186,-0.001414,-0.0273248,-0.370403
187,-0.001413,-0.0273248,-0.359776
188,-0.001412,-0.0258068,-0.350668
189,-0.001411,-0.0288428,-0.34156
190,-0.00141,-0.0303609,-0.332452
191,-0.001409,-0.0303609,-0.321825
192,-0.001408,-0.0288428,-0.311199
193,-0.001407,-0.0318789,-0.303609
194,-0.001406,-0.0318789,-0.292983
195,-0.001405,-0.033397,-0.280838
196,-0.001404,-0.033397,-0.27173
197,-0.001403,-0.033397,-0.262622
198,-0.001402,-0.0318789,-0.251995
199,-0.001401,-0.033397,-0.242887
200,-0.0014,-0.033397,-0.233779
201,-0.001399,-0.033397,-0.224671
202,-0.001398,-0.034915,-0.212526
203,-0.001397,-0.034915,-0.203418
204,-0.001396,-0.0364331,-0.19431
205,-0.001395,-0.0364331,-0.183683
206,-0.001394,-0.0394692,-0.174575
207,-0.001393,-0.0394692,-0.160913
208,-0.001392,-0.0394692,-0.151804
209,-0.001391,-0.0394692,-0.142696
210,-0.00139,-0.0394692,-0.13207
211,-0.001389,-0.0394692,-0.122962
212,-0.001388,-0.0394692,-0.112335
213,-0.001387,-0.0394692,-0.103227
214,-0.001386,-0.0425052,-0.0941187
215,-0.001385,-0.0440233,-0.0834924
216,-0.001384,-0.0440233,-0.0759022
217,-0.001383,-0.0425052,-0.0622398
218,-0.001382,-0.0455413,-0.0531316
219,-0.001381,-0.0485774,-0.0425052
220,-0.00138,-0.0485774,-0.0318789
221,-0.001379,-0.0485774,-0.0212526
222,-0.001378,-0.0500955,-0.0121444
223,-0.001377,-0.0455413,-0.00303609
224,-0.001376,-0.0455413,0.00759022
225,-0.001375,-0.0500955,0.0166985
226,-0.001374,-0.0485774,0.0273248
227,-0.001373,-0.0546496,0.0364331
228,-0.001372,-0.0516135,0.0470594
229,-0.001371,-0.0546496,0.0561676
230,-0.00137,-0.0531316,0.06983
231,-0.001369,-0.0546496,0.0774203
232,-0.001368,-0.0561676,0.0880466
233,-0.001367,-0.0546496,0.0986729
234,-0.001366,-0.0576857,0.107781
235,-0.001365,-0.0546496,0.121444
236,-0.001364,-0.0561676,0.129034
237,-0.001363,-0.0561676,0.13966
238,-0.001362,-0.0576857,0.148768
239,-0.001361,-0.0576857,0.157877
240,-0.00136,-0.0576857,0.168503
241,-0.001359,-0.0607218,0.180647
242,-0.001358,-0.0592037,0.191274
243,-0.001357,-0.0607218,0.198864
244,-0.001356,-0.0607218,0.212526
245,-0.001355,-0.0622398,0.221634
246,-0.001354,-0.0622398,0.232261
247,-0.001353,-0.0637579,0.242887
248,-0.001352,-0.0637579,0.253513
249,-0.001351,-0.0637579,0.262622
250,-0.00135,-0.0637579,0.27173
251,-0.001349,-0.0637579,0.283874
252,-0.001348,-0.0637579,0.292983
253,-0.001347,-0.0637579,0.303609
254,-0.001346,-0.0622398,0.312717
255,-0.001345,-0.0667939,0.323343
256,-0.001344,-0.0667939,0.332452
257,-0.001343,-0.0667939,0.34156
258,-0.001342,-0.0667939,0.353704
259,-0.001341,-0.0652759,0.362813
260,-0.00134,-0.06983,0.373439
261,-0.001339,-0.06983,0.382547
262,-0.001338,-0.06983,0.39621
263,-0.001337,-0.06983,0.4038
264,-0.001336,-0.06983,0.414426
265,-0.001335,-0.06983,0.425052
266,-0.001334,-0.06983,0.432643
267,-0.001333,-0.06983,0.443269
268,-0.001332,-0.06983,0.452377
269,-0.001331,-0.06983,0.463004
270,-0.00133,-0.06983,0.472112
271,-0.001329,-0.0743842,0.484256
272,-0.001328,-0.0743842,0.493364
273,-0.001327,-0.0743842,0.502473
274,-0.001326,-0.0743842,0.514617
275,-0.001325,-0.0728661,0.523725
276,-0.001324,-0.0774203,0.534352
277,-0.001323,-0.0774203,0.54346
278,-0.001322,-0.0789383,0.554086
279,-0.001321,-0.0759022,0.563194
280,-0.00132,-0.0774203,0.575339
281,-0.001319,-0.0774203,0.584447
282,-0.001318,-0.0774203,0.593555
283,-0.001317,-0.0774203,0.604182
284,-0.001316,-0.0759022,0.61329
285,-0.001315,-0.0774203,0.622398
286,-0.001314,-0.0804563,0.631506
287,-0.001313,-0.0759022,0.640615
288,-0.001312,-0.0804563,0.651241
289,-0.001311,-0.0804563,0.660349
290,-0.00131,-0.0804563,0.670976
291,-0.001309,-0.0804563,0.677048
292,-0.001308,-0.0804563,0.69071
293,-0.001307,-0.0804563,0.6983
294,-0.001306,-0.0850105,0.707409
295,-0.001305,-0.0819744,0.718035
296,-0.001304,-0.0850105,0.727143
297,-0.001303,-0.0819744,0.73777
298,-0.001302,-0.0834924,0.748396
299,-0.001301,-0.0819744,0.754468
300,-0.0013,-0.0850105,0.765094
301,-0.001299,-0.0834924,0.774203
302,-0.001298,-0.0834924,0.786347
303,-0.001297,-0.0834924,0.792419
304,-0.001296,-0.0834924,0.803045
305,-0.001295,-0.0834924,0.810636
306,-0.001294,-0.0819744,0.818226
307,-0.001293,-0.0865285,0.83037
308,-0.001292,-0.0865285,0.836442
309,-0.001291,-0.0880466,0.847069
310,-0.00129,-0.0880466,0.856177
311,-0.001289,-0.0880466,0.865285
312,-0.001288,-0.0880466,0.875912
313,-0.001287,-0.0880466,0.881984
314,-0.001286,-0.0865285,0.89261
315,-0.001285,-0.0910827,0.901718
316,-0.001284,-0.0910827,0.910827
317,-0.001283,-0.0910827,0.919935
318,-0.001282,-0.0895646,0.929043
319,-0.001281,-0.0895646,0.936633
320,-0.00128,-0.0910827,0.94726
321,-0.001279,-0.0910827,0.956368
322,-0.001278,-0.0910827,0.963958
323,-0.001277,-0.0880466,0.974584
324,-0.001276,-0.0910827,0.982175
325,-0.001275,-0.0910827,0.989765
326,-0.001274,-0.0910827,0.998873
327,-0.001273,-0.0895646,1.00798
328,-0.001272,-0.0895646,1.01709
329,-0.001271,-0.0895646,1.02468
330,-0.00127,-0.0895646,1.03075
331,-0.001269,-0.0895646,1.03986
332,-0.001268,-0.0926007,1.04745
333,-0.001267,-0.0926007,1.05808
334,-0.001266,-0.0926007,1.06567
335,-0.001265,-0.0926007,1.07478
336,-0.001264,-0.0926007,1.08085
337,-0.001263,-0.0926007,1.08996
338,-0.001262,-0.0926007,1.09755
339,-0.001261,-0.0926007,1.10514
340,-0.00126,-0.0926007,1.11121
341,-0.001259,-0.0926007,1.12032
342,-0.001258,-0.0971548,1.12942
343,-0.001257,-0.0971548,1.13702
344,-0.001256,-0.0971548,1.14461
345,-0.001255,-0.0971548,1.15371
346,-0.001254,-0.0971548,1.15979
347,-0.001253,-0.0971548,1.16889
348,-0.001252,-0.0971548,1.178
349,-0.001251,-0.0956368,1.18559
350,-0.00125,-0.100191,1.19166
351,-0.001249,-0.0956368,1.20077
352,-0.001248,-0.0971548,1.20685
353,-0.001247,-0.0971548,1.21595
354,-0.001246,-0.0956368,1.22203
355,-0.001245,-0.0986729,1.23113
356,-0.001244,-0.0971548,1.23569
357,-0.001243,-0.0971548,1.24631
358,-0.001242,-0.0971548,1.25087
359,-0.001241,-0.0971548,1.25694
360,-0.00124,-0.0971548,1.26605
361,-0.001239,-0.0971548,1.27212
362,-0.001238,-0.0956368,1.27819
363,-0.001237,-0.0986729,1.28427
364,-0.001236,-0.0971548,1.29186
365,-0.001235,-0.0971548,1.29793
366,-0.001234,-0.0956368,1.304
367,-0.001233,-0.0971548,1.31159
368,-0.001232,-0.100191,1.31766
369,-0.001231,-0.0956368,1.32373
370,-0.00123,-0.0971548,1.32981
371,-0.001229,-0.0971548,1.33892
372,-0.001228,-0.0971548,1.34195
373,-0.001227,-0.0971548,1.34954
374,-0.001226,-0.100191,1.35258
375,-0.001225,-0.100191,1.3632
376,-0.001224,-0.100191,1.36928
377,-0.001223,-0.100191,1.37535
378,-0.001222,-0.100191,1.38294
379,-0.001221,-0.100191,1.38901
380,-0.00122,-0.100191,1.39205
381,-0.001219,-0.100191,1.39964
382,-0.001218,-0.100191,1.40723
383,-0.001217,-0.100191,1.4133
384,-0.001216,-0.100191,1.41634
385,-0.001215,-0.0986729,1.42393
386,-0.001214,-0.103227,1.43
387,-0.001213,-0.0986729,1.43607
388,-0.001212,-0.100191,1.44214
389,-0.001211,-0.100191,1.44518
390,-0.00121,-0.100191,1.45277
391,-0.001209,-0.101709,1.45884
392,-0.001208,-0.101709,1.46188
393,-0.001207,-0.0986729,1.46795
394,-0.001206,-0.100191,1.47402
395,-0.001205,-0.100191,1.47858
396,-0.001204,-0.100191,1.48313
397,-0.001203,-0.101709,1.4892
398,-0.001202,-0.0986729,1.49527
399,-0.001201,-0.100191,1.49983
400,-0.0012,-0.100191,1.5059
401,-0.001199,-0.100191,1.51045
402,-0.001198,-0.100191,1.51349
403,-0.001197,-0.100191,1.51956
404,-0.001196,-0.101709,1.52563
405,-0.001195,-0.0986729,1.52867
406,-0.001194,-0.100191,1.53322
407,-0.001193,-0.100191,1.53778
408,-0.001192,-0.101709,1.54233
409,-0.001191,-0.101709,1.54841
410,-0.00119,-0.100191,1.55144
411,-0.001189,-0.100191,1.556
412,-0.001188,-0.101709,1.55903
413,-0.001187,-0.101709,1.56662
414,-0.001186,-0.100191,1.56966
415,-0.001185,-0.100191,1.57421
416,-0.001184,-0.100191,1.57725
417,-0.001183,-0.100191,1.5818
418,-0.001182,-0.100191,1.58484
419,-0.001181,-0.0986729,1.59091
420,-0.00118,-0.101709,1.59243
421,-0.001179,-0.100191,1.5985
422,-0.001178,-0.0971548,1.60154
423,-0.001177,-0.0971548,1.60457
424,-0.001176,-0.0956368,1.60609
425,-0.001175,-0.0986729,1.61065
426,-0.001174,-0.0986729,1.61368
427,-0.001173,-0.0956368,1.61672
428,-0.001172,-0.0971548,1.61975
429,-0.001171,-0.0971548,1.62279
430,-0.00117,-0.0956368,1.62583
431,-0.001169,-0.0986729,1.62734
432,-0.001168,-0.0971548,1.63038
433,-0.001167,-0.0971548,1.63493
434,-0.001166,-0.0971548,1.63645
435,-0.001165,-0.0971548,1.63949
436,-0.001164,-0.0971548,1.64101
437,-0.001163,-0.0956368,1.64404
438,-0.001162,-0.0986729,1.64708
439,-0.001161,-0.0971548,1.6486
440,-0.00116,-0.0971548,1.65163
441,-0.001159,-0.0971548,1.65315
442,-0.001158,-0.0971548,1.6577
443,-0.001157,-0.0956368,1.66074
444,-0.001156,-0.100191,1.66226
445,-0.001155,-0.0956368,1.66378
446,-0.001154,-0.0956368,1.66681
447,-0.001153,-0.0986729,1.66833
448,-0.001152,-0.0986729,1.67137
449,-0.001151,-0.0956368,1.67288
450,-0.00115,-0.0971548,1.67592
451,-0.001149,-0.0971548,1.67896
452,-0.001148,-0.0971548,1.68047
453,-0.001147,-0.0971548,1.68199
454,-0.001146,-0.0926007,1.68503
455,-0.001145,-0.0926007,1.68655
456,-0.001144,-0.0956368,1.68807
457,-0.001143,-0.0910827,1.68807
458,-0.001142,-0.0926007,1.68958
459,-0.001141,-0.0926007,1.68958
460,-0.00114,-0.0910827,1.69262
461,-0.001139,-0.0971548,1.69414
462,-0.001138,-0.0910827,1.69414
463,-0.001137,-0.0926007,1.69414
464,-0.001136,-0.0895646,1.69717
465,-0.001135,-0.0910827,1.69566
466,-0.001134,-0.0910827,1.69869
467,-0.001133,-0.0880466,1.69869
468,-0.001132,-0.0910827,1.69869
469,-0.001131,-0.0895646,1.69869
470,-0.00113,-0.0880466,1.69869
471,-0.001129,-0.0910827,1.70173
472,-0.001128,-0.0910827,1.69869
473,-0.001127,-0.0880466,1.70325
474,-0.001126,-0.0895646,1.70325
475,-0.001125,-0.0880466,1.70325
476,-0.001124,-0.0910827,1.70325
477,-0.001123,-0.0910827,1.70325
478,-0.001122,-0.0910827,1.70476
479,-0.001121,-0.0910827,1.70476
480,-0.00112,-0.0880466,1.70476
481,-0.001119,-0.0895646,1.70628
482,-0.001118,-0.0850105,1.70628
483,-0.001117,-0.0865285,1.70476
484,-0.001116,-0.0865285,1.70476
485,-0.001115,-0.0865285,1.70476
486,-0.001114,-0.0850105,1.70476
487,-0.001113,-0.0880466,1.70325
488,-0.001112,-0.0850105,1.70325
489,-0.001111,-0.0834924,1.70325
490,-0.00111,-0.0834924,1.70173
491,-0.001109,-0.0834924,1.70173
492,-0.001108,-0.0834924,1.69869
493,-0.001107,-0.0834924,1.69869
494,-0.001106,-0.0834924,1.69717
495,-0.001105,-0.0834924,1.69414
496,-0.001104,-0.0850105,1.69414
497,-0.001103,-0.0834924,1.69414
498,-0.001102,-0.0834924,1.69262
499,-0.001101,-0.0834924,1.69262
500,-0.0011,-0.0834924,1.6911
501,-0.001099,-0.0834924,1.68958
502,-0.001098,-0.0804563,1.68958
503,-0.001097,-0.0804563,1.68655
504,-0.001096,-0.0804563,1.68503
505,-0.001095,-0.0804563,1.68503
506,-0.001094,-0.0804563,1.68351
507,-0.001093,-0.0804563,1.68047
508,-0.001092,-0.0774203,1.67896
509,-0.001091,-0.0774203,1.67592
510,-0.00109,-0.0774203,1.67288
511,-0.001089,-0.0774203,1.67137
512,-0.001088,-0.0774203,1.66833
513,-0.001087,-0.0774203,1.66681
514,-0.001086,-0.0774203,1.66529
515,-0.001085,-0.0774203,1.66226
516,-0.001084,-0.0774203,1.65922
517,-0.001083,-0.0774203,1.65922
518,-0.001082,-0.0774203,1.6577
519,-0.001081,-0.0774203,1.65315
520,-0.00108,-0.0728661,1.65163
521,-0.001079,-0.0743842,1.65011
522,-0.001078,-0.0728661,1.64404
523,-0.001077,-0.0728661,1.64404
524,-0.001076,-0.0728661,1.64101
525,-0.001075,-0.0728661,1.63797
526,-0.001074,-0.068312,1.63493
527,-0.001073,-0.068312,1.63038
528,-0.001072,-0.068312,1.62431
529,-0.001071,-0.068312,1.62431
530,-0.00107,-0.06983,1.62127
531,-0.001069,-0.0667939,1.61824
532,-0.001068,-0.068312,1.6152
533,-0.001067,-0.068312,1.61216
534,-0.001066,-0.068312,1.60761
535,-0.001065,-0.068312,1.60457
536,-0.001064,-0.0667939,1.60154
537,-0.001063,-0.0652759,1.59698
538,-0.001062,-0.0637579,1.59395
539,-0.001061,-0.0667939,1.58939
540,-0.00106,-0.0637579,1.58484
541,-0.001059,-0.0637579,1.5818
542,-0.001058,-0.0637579,1.57573
543,-0.001057,-0.0637579,1.57421
544,-0.001056,-0.0637579,1.56966
545,-0.001055,-0.0607218,1.56207
546,-0.001054,-0.0622398,1.56055
547,-0.001053,-0.0622398,1.556
548,-0.001052,-0.0622398,1.55296
549,-0.001051,-0.0622398,1.54689
550,-0.00105,-0.0637579,1.54537
551,-0.001049,-0.0576857,1.54081
552,-0.001048,-0.0592037,1.53474
553,-0.001047,-0.0592037,1.53019
554,-0.001046,-0.0592037,1.52563
555,-0.001045,-0.0592037,1.52108
556,-0.001044,-0.0561676,1.51501
557,-0.001043,-0.0561676,1.51045
558,-0.001042,-0.0561676,1.5059
559,-0.001041,-0.0561676,1.50135
560,-0.00104,-0.0561676,1.49527
561,-0.001039,-0.0561676,1.49072
562,-0.001038,-0.0561676,1.48617
563,-0.001037,-0.0561676,1.48009
564,-0.001036,-0.0561676,1.47554
565,-0.001035,-0.0516135,1.4725
566,-0.001034,-0.0531316,1.46491
567,-0.001033,-0.0516135,1.46036
568,-0.001032,-0.0531316,1.45429
569,-0.001031,-0.0485774,1.44973
570,-0.00103,-0.0485774,1.44062
571,-0.001029,-0.0485774,1.43759
572,-0.001028,-0.0485774,1.43152
573,-0.001027,-0.0485774,1.42393
574,-0.001026,-0.0485774,1.41937
575,-0.001025,-0.0485774,1.4133
576,-0.001024,-0.0485774,1.40875
577,-0.001023,-0.0455413,1.40115
578,-0.001022,-0.0425052,1.3966
579,-0.001021,-0.0440233,1.39053
580,-0.00102,-0.0440233,1.38294
581,-0.001019,-0.0440233,1.3799
582,-0.001018,-0.0409872,1.37231
583,-0.001017,-0.0409872,1.36472
584,-0.001016,-0.0409872,1.35865
585,-0.001015,-0.0409872,1.35106
586,-0.001014,-0.0409872,1.34499
587,-0.001013,-0.0409872,1.33892
588,-0.001012,-0.0409872,1.33132
589,-0.001011,-0.0409872,1.32525
590,-0.00101,-0.0379511,1.3207
591,-0.001009,-0.0379511,1.31159
592,-0.001008,-0.0379511,1.304
593,-0.001007,-0.034915,1.29793
594,-0.001006,-0.0379511,1.29186
595,-0.001005,-0.033397,1.28427
596,-0.001004,-0.034915,1.27819
597,-0.001003,-0.034915,1.26909
598,-0.001002,-0.034915,1.26149
599,-0.001001,-0.034915,1.25542
600,-0.001,-0.034915,1.24935
601,-0.000999,-0.033397,1.24024
602,-0.000998,-0.033397,1.23417
603,-0.000997,-0.0303609,1.22962
604,-0.000996,-0.0318789,1.22051
605,-0.000995,-0.0303609,1.21292
606,-0.000994,-0.0303609,1.20533
607,-0.000993,-0.0273248,1.19925
608,-0.000992,-0.0273248,1.19166
609,-0.000991,-0.0273248,1.18256
610,-0.00099,-0.0258068,1.17497
611,-0.000989,-0.0288428,1.16586
612,-0.000988,-0.0288428,1.15979
613,-0.000987,-0.0273248,1.1522
614,-0.000986,-0.0273248,1.14461
615,-0.000985,-0.0258068,1.13702
616,-0.000984,-0.0212526,1.12942
617,-0.000983,-0.0212526,1.1188
618,-0.000982,-0.0212526,1.11424
619,-0.000981,-0.0182165,1.1021
620,-0.00098,-0.0197346,1.09603
621,-0.000979,-0.0182165,1.08996
622,-0.000978,-0.0197346,1.08085
623,-0.000977,-0.0197346,1.07174
624,-0.000976,-0.0197346,1.06263
625,-0.000975,-0.0182165,1.05504
626,-0.000974,-0.0182165,1.04897
627,-0.000973,-0.0151804,1.03986
628,-0.000972,-0.0166985,1.03075
629,-0.000971,-0.0151804,1.02468
630,-0.00097,-0.0151804,1.01557
631,-0.000969,-0.0121444,1.00495
632,-0.000968,-0.0136624,0.995837
633,-0.000967,-0.0136624,0.985211
634,-0.000966,-0.0136624,0.979139
635,-0.000965,-0.0136624,0.971548
636,-0.000964,-0.0136624,0.960922
637,-0.000963,-0.0136624,0.951814
638,-0.000962,-0.0106263,0.945742
639,-0.000961,-0.00759022,0.936633
640,-0.00096,-0.00759022,0.927525
641,-0.000959,-0.0106263,0.916899
642,-0.000958,-0.0106263,0.90779
643,-0.000957,-0.0106263,0.901718
644,-0.000956,-0.0106263,0.89261
645,-0.000955,-0.00910827,0.883502
646,-0.000954,-0.00910827,0.875912
647,-0.000953,-0.0106263,0.866803
648,-0.000952,-0.00910827,0.857695
649,-0.000951,-0.00910827,0.851623
650,-0.00095,-0.00607218,0.840997
651,-0.000949,-0.00759022,0.831888
652,-0.000948,-0.00607218,0.82278
653,-0.000947,-0.00607218,0.81519
654,-0.000946,-0.00303609,0.809118
655,-0.000945,-0.00455413,0.796973
656,-0.000944,-0.00455413,0.789383
657,-0.000943,-0.00455413,0.778757
658,-0.000942,-0.00455413,0.772685
659,-0.000941,-0.00455413,0.763576
660,-0.00094,-0.00455413,0.754468
661,-0.000939,0,0.74536
662,-0.000938,0,0.73777
663,-0.000937,0.00151804,0.727143
664,-0.000936,0,0.718035
665,-0.000935,0.00303609,0.708927
666,-0.000934,0.00455413,0.699818
667,-0.000933,0.00455413,0.69071
668,-0.000932,0.00607218,0.681602
669,-0.000931,0.00607218,0.672494
670,-0.00093,0.00607218,0.661867
671,-0.000929,0.00607218,0.654277
672,-0.000928,0.00455413,0.645169
673,-0.000927,0.00759022,0.636061
674,-0.000926,0.00759022,0.626952
675,-0.000925,0.00910827,0.616326
676,-0.000924,0.00759022,0.607218
677,-0.000923,0.0106263,0.598109
678,-0.000922,0.0121444,0.589001
679,-0.000921,0.0121444,0.578375
680,-0.00092,0.0121444,0.567749
681,-0.000919,0.0121444,0.55864
682,-0.000918,0.0121444,0.546496
683,-0.000917,0.0121444,0.540424
684,-0.000916,0.0106263,0.531316
685,-0.000915,0.0136624,0.520689
686,-0.000914,0.0166985,0.513099
687,-0.000913,0.0166985,0.499437
688,-0.000912,0.0136624,0.490328
689,-0.000911,0.0166985,0.484256
690,-0.00091,0.0197346,0.472112
691,-0.000909,0.0197346,0.461485
692,-0.000908,0.0197346,0.450859
693,-0.000907,0.0197346,0.441751
694,-0.000906,0.0182165,0.431125
695,-0.000905,0.0182165,0.423534
696,-0.000904,0.0197346,0.41139
697,-0.000903,0.0197346,0.405318
698,-0.000902,0.0197346,0.393173
699,-0.000901,0.0212526,0.382547
700,-0.0009,0.0197346,0.373439
701,-0.000899,0.0242887,0.362813
702,-0.000898,0.0273248,0.353704
703,-0.000897,0.0242887,0.343078
704,-0.000896,0.0273248,0.332452
705,-0.000895,0.0273248,0.323343
706,-0.000894,0.0273248,0.312717
707,-0.000893,0.0273248,0.303609
708,-0.000892,0.0273248,0.292983
709,-0.000891,0.0258068,0.283874
710,-0.00089,0.0288428,0.273248
711,-0.000889,0.0288428,0.26414
712,-0.000888,0.0303609,0.253513
713,-0.000887,0.0288428,0.242887
714,-0.000886,0.033397,0.233779
715,-0.000885,0.033397,0.223153
716,-0.000884,0.033397,0.212526
717,-0.000883,0.033397,0.2019
718,-0.000882,0.033397,0.189756
719,-0.000881,0.033397,0.180647
720,-0.00088,0.0318789,0.171539
721,-0.000879,0.034915,0.159395
722,-0.000878,0.033397,0.150286
723,-0.000877,0.0364331,0.141178
724,-0.000876,0.0379511,0.130552
725,-0.000875,0.0379511,0.119925
726,-0.000874,0.0364331,0.109299
727,-0.000873,0.0394692,0.100191
728,-0.000872,0.0409872,0.0880466
729,-0.000871,0.0409872,0.0789383
730,-0.00087,0.0409872,0.0667939
731,-0.000869,0.0409872,0.0576857
732,-0.000868,0.0409872,0.0485774
733,-0.000867,0.0409872,0.0379511
734,-0.000866,0.0409872,0.0288428
735,-0.000865,0.0409872,0.0166985
736,-0.000864,0.0440233,0.00759022
737,-0.000863,0.0440233,-0.00303609
738,-0.000862,0.0425052,-0.0136624
739,-0.000861,0.0440233,-0.0227707
740,-0.00086,0.0440233,-0.033397
741,-0.000859,0.0485774,-0.0440233
742,-0.000858,0.0485774,-0.0546496
743,-0.000857,0.0485774,-0.0652759
744,-0.000856,0.0485774,-0.0759022
745,-0.000855,0.0485774,-0.0865285
746,-0.000854,0.0470594,-0.0971548
747,-0.000853,0.0485774,-0.106263
748,-0.000852,0.0485774,-0.116889
749,-0.000851,0.0470594,-0.125998
750,-0.00085,0.0516135,-0.135106
751,-0.000849,0.0516135,-0.145732
752,-0.000848,0.0516135,-0.157877
753,-0.000847,0.0485774,-0.166985
754,-0.000846,0.0500955,-0.177611
755,-0.000845,0.0531316,-0.188237
756,-0.000844,0.0546496,-0.197346
757,-0.000843,0.0546496,-0.206454
758,-0.000842,0.0546496,-0.220116
759,-0.000841,0.0546496,-0.229225
760,-0.00084,0.0546496,-0.239851
761,-0.000839,0.0546496,-0.248959
762,-0.000838,0.0546496,-0.259586
763,-0.000837,0.0546496,-0.268694
764,-0.000836,0.0531316,-0.27932
765,-0.000835,0.0576857,-0.288428
766,-0.000834,0.0576857,-0.297537
767,-0.000833,0.0576857,-0.308163
768,-0.000832,0.0592037,-0.317271
769,-0.000831,0.0561676,-0.327898
770,-0.00083,0.0607218,-0.337006
771,-0.000829,0.0607218,-0.34915
772,-0.000828,0.0622398,-0.358258
773,-0.000827,0.0607218,-0.367367
774,-0.000826,0.0622398,-0.379511
775,-0.000825,0.0607218,-0.388619
776,-0.000824,0.0607218,-0.399246
777,-0.000823,0.0622398,-0.408354
778,-0.000822,0.0622398,-0.420498
779,-0.000821,0.0622398,-0.42657
780,-0.00082,0.0622398,-0.435679
781,-0.000819,0.0622398,-0.446305
782,-0.000818,0.0652759,-0.455413
783,-0.000817,0.0652759,-0.46604
784,-0.000816,0.0652759,-0.475148
785,-0.000815,0.0652759,-0.485774
786,-0.000814,0.0637579,-0.494882
787,-0.000813,0.0667939,-0.503991
788,-0.000812,0.0713481,-0.516135
789,-0.000811,0.0667939,-0.525243
790,-0.00081,0.0713481,-0.53587
791,-0.000809,0.068312,-0.546496
792,-0.000808,0.068312,-0.555604
793,-0.000807,0.068312,-0.566231
794,-0.000806,0.068312,-0.572303
795,-0.000805,0.068312,-0.584447
796,-0.000804,0.0713481,-0.593555
797,-0.000803,0.0713481,-0.602664
798,-0.000802,0.0713481,-0.611772
799,-0.000801,0.0713481,-0.62088
800,-0.0008,0.0713481,-0.629988
801,-0.000799,0.0743842,-0.639097
802,-0.000798,0.0743842,-0.648205
803,-0.000797,0.0743842,-0.657313
804,-0.000796,0.0743842,-0.666421
805,-0.000795,0.0743842,-0.677048
806,-0.000794,0.0728661,-0.684638
807,-0.000793,0.0774203,-0.695264
808,-0.000792,0.0759022,-0.704373
809,-0.000791,0.0789383,-0.714999
810,-0.00079,0.0774203,-0.722589
811,-0.000789,0.0774203,-0.731697
812,-0.000788,0.0774203,-0.743842
813,-0.000787,0.0774203,-0.749914
814,-0.000786,0.0774203,-0.762058
815,-0.000785,0.0774203,-0.76813
816,-0.000784,0.0759022,-0.778757
817,-0.000783,0.0774203,-0.786347
818,-0.000782,0.0759022,-0.796973
819,-0.000781,0.0759022,-0.803045
820,-0.00078,0.0774203,-0.812154
821,-0.000779,0.0774203,-0.819744
822,-0.000778,0.0759022,-0.83037
823,-0.000777,0.0789383,-0.836442
824,-0.000776,0.0789383,-0.845551
825,-0.000775,0.0789383,-0.856177
826,-0.000774,0.0804563,-0.862249
827,-0.000773,0.0804563,-0.872875
828,-0.000772,0.0774203,-0.881984
829,-0.000771,0.0804563,-0.888056
830,-0.00077,0.0789383,-0.898682
831,-0.000769,0.0774203,-0.90779
832,-0.000768,0.0834924,-0.913863
833,-0.000767,0.0834924,-0.921453
834,-0.000766,0.0834924,-0.932079
835,-0.000765,0.0834924,-0.939669
836,-0.000764,0.0819744,-0.948778
837,-0.000763,0.0819744,-0.956368
838,-0.000762,0.0819744,-0.965476
839,-0.000761,0.0834924,-0.974584
840,-0.00076,0.0804563,-0.980657
841,-0.000759,0.0804563,-0.992801
842,-0.000758,0.0834924,-0.998873
843,-0.000757,0.0804563,-1.00495
844,-0.000756,0.0819744,-1.01557
845,-0.000755,0.0819744,-1.02164
846,-0.000754,0.0819744,-1.02772
847,-0.000753,0.0804563,-1.03379
848,-0.000752,0.0834924,-1.04441
849,-0.000751,0.0819744,-1.052
850,-0.00075,0.0834924,-1.05656
851,-0.000749,0.0804563,-1.06719
852,-0.000748,0.0819744,-1.07326
853,-0.000747,0.0834924,-1.07933
854,-0.000746,0.0804563,-1.08844
855,-0.000745,0.0850105,-1.09299
856,-0.000744,0.0865285,-1.09906
857,-0.000743,0.0865285,-1.10969
858,-0.000742,0.0834924,-1.11576
859,-0.000741,0.0834924,-1.12335
860,-0.00074,0.0865285,-1.13094
861,-0.000739,0.0850105,-1.13702
862,-0.000738,0.0834924,-1.14461
863,-0.000737,0.0865285,-1.1522
864,-0.000736,0.0865285,-1.15827
865,-0.000735,0.0850105,-1.16586
866,-0.000734,0.0850105,-1.17193
867,-0.000733,0.0865285,-1.17952
868,-0.000732,0.0850105,-1.18559
869,-0.000731,0.0850105,-1.19166
870,-0.00073,0.0865285,-1.19925
871,-0.000729,0.0865285,-1.20381
872,-0.000728,0.0850105,-1.21292
873,-0.000727,0.0850105,-1.21444
874,-0.000726,0.0880466,-1.22658
875,-0.000725,0.0895646,-1.23113
876,-0.000724,0.0865285,-1.23721
877,-0.000723,0.0895646,-1.2448
878,-0.000722,0.0895646,-1.25087
879,-0.000721,0.0895646,-1.25694
880,-0.00072,0.0895646,-1.26301
881,-0.000719,0.0895646,-1.2706
882,-0.000718,0.0895646,-1.27668
883,-0.000717,0.0895646,-1.28427
884,-0.000716,0.0895646,-1.2873
885,-0.000715,0.0895646,-1.29489
886,-0.000714,0.0895646,-1.30096
887,-0.000713,0.0895646,-1.30704
888,-0.000712,0.0895646,-1.31463
889,-0.000711,0.0895646,-1.3207
890,-0.00071,0.0895646,-1.32677
891,-0.000709,0.0895646,-1.32981
892,-0.000708,0.0880466,-1.3374
893,-0.000707,0.0895646,-1.34347
894,-0.000706,0.0895646,-1.34802
895,-0.000705,0.0895646,-1.3541
896,-0.000704,0.0895646,-1.36017
897,-0.000703,0.0895646,-1.36472
898,-0.000702,0.0895646,-1.37079
899,-0.000701,0.0895646,-1.37535
900,-0.0007,0.0895646,-1.37838
901,-0.000699,0.0895646,-1.38597
902,-0.000698,0.0895646,-1.39053
903,-0.000697,0.0895646,-1.39508
904,-0.000696,0.0895646,-1.40115
905,-0.000695,0.0895646,-1.40571
906,-0.000694,0.0895646,-1.41026
907,-0.000693,0.0895646,-1.41482
908,-0.000692,0.0895646,-1.41937
909,-0.000691,0.0895646,-1.42393
910,-0.00069,0.0895646,-1.43152
911,-0.000689,0.0895646,-1.43455
912,-0.000688,0.0895646,-1.43911
913,-0.000687,0.0895646,-1.44214
914,-0.000686,0.0895646,-1.4467
915,-0.000685,0.0880466,-1.45429
916,-0.000684,0.0910827,-1.4558
917,-0.000683,0.0895646,-1.46036
918,-0.000682,0.0895646,-1.46643
919,-0.000681,0.0895646,-1.46947
920,-0.00068,0.0895646,-1.47402
921,-0.000679,0.0895646,-1.47858
922,-0.000678,0.0865285,-1.48161
923,-0.000677,0.0834924,-1.48465
924,-0.000676,0.0865285,-1.48768
925,-0.000675,0.0865285,-1.49072
926,-0.000674,0.0850105,-1.49224
927,-0.000673,0.0880466,-1.49679
928,-0.000672,0.0834924,-1.49983
929,-0.000671,0.0865285,-1.50286
930,-0.00067,0.0850105,-1.5059
931,-0.000669,0.0850105,-1.50894
932,-0.000668,0.0850105,-1.51045
933,-0.000667,0.0865285,-1.51501
934,-0.000666,0.0865285,-1.51956
935,-0.000665,0.0865285,-1.5226
936,-0.000664,0.0865285,-1.5226
937,-0.000663,0.0834924,-1.52715
938,-0.000662,0.0834924,-1.52867
939,-0.000661,0.0850105,-1.53171
940,-0.00066,0.0865285,-1.53474
941,-0.000659,0.0819744,-1.53778
942,-0.000658,0.0819744,-1.53778
943,-0.000657,0.0819744,-1.5393
944,-0.000656,0.0819744,-1.54385
945,-0.000655,0.0819744,-1.54537
946,-0.000654,0.0819744,-1.54537
947,-0.000653,0.0819744,-1.54841
948,-0.000652,0.0819744,-1.55144
949,-0.000651,0.0819744,-1.55144
950,-0.00065,0.0819744,-1.55144
951,-0.000649,0.0819744,-1.55448
952,-0.000648,0.0819744,-1.556
953,-0.000647,0.0819744,-1.55903
954,-0.000646,0.0819744,-1.55751
955,-0.000645,0.0819744,-1.56055
956,-0.000644,0.0819744,-1.56207
957,-0.000643,0.0819744,-1.56359
958,-0.000642,0.0819744,-1.56814
959,-0.000641,0.0819744,-1.56814
960,-0.00064,0.0819744,-1.56814
961,-0.000639,0.0819744,-1.57118
962,-0.000638,0.0819744,-1.57118
963,-0.000637,0.0819744,-1.57269
964,-0.000636,0.0789383,-1.57573
965,-0.000635,0.0789383,-1.57573
966,-0.000634,0.0789383,-1.57269
967,-0.000633,0.0819744,-1.57725
968,-0.000632,0.0774203,-1.57725
969,-0.000631,0.0789383,-1.57725
970,-0.00063,0.0789383,-1.57725
971,-0.000629,0.0789383,-1.58028
972,-0.000628,0.0789383,-1.57877
973,-0.000627,0.0759022,-1.57877
974,-0.000626,0.0774203,-1.57877
975,-0.000625,0.0759022,-1.58028
976,-0.000624,0.0759022,-1.57573
977,-0.000623,0.0759022,-1.58028
978,-0.000622,0.0759022,-1.57725
979,-0.000621,0.0759022,-1.57877
980,-0.00062,0.0759022,-1.57877
981,-0.000619,0.0759022,-1.57725
982,-0.000618,0.0774203,-1.57725
983,-0.000617,0.0774203,-1.57725
984,-0.000616,0.0774203,-1.57725
985,-0.000615,0.0774203,-1.57725
986,-0.000614,0.0759022,-1.57725
987,-0.000613,0.0759022,-1.57725
988,-0.000612,0.0743842,-1.57725
989,-0.000611,0.0743842,-1.57725
990,-0.00061,0.0743842,-1.57725
991,-0.000609,0.0743842,-1.57421
992,-0.000608,0.0743842,-1.57421
993,-0.000607,0.0728661,-1.57421
994,-0.000606,0.0728661,-1.57269
995,-0.000605,0.0728661,-1.57269
996,-0.000604,0.0667939,-1.57269
997,-0.000603,0.068312,-1.56814
998,-0.000602,0.0667939,-1.56966
999,-0.000601,0.0728661,-1.56662
1000,-0.0006,0.068312,-1.56207
1001,-0.000599,0.068312,-1.56207
1002,-0.000598,0.068312,-1.56207
1003,-0.000597,0.068312,-1.55903
1004,-0.000596,0.068312,-1.55903
1005,-0.000595,0.068312,-1.55751
1006,-0.000594,0.0713481,-1.556
1007,-0.000593,0.0667939,-1.55448
1008,-0.000592,0.068312,-1.55296
1009,-0.000591,0.0637579,-1.55144
1010,-0.00059,0.0652759,-1.54992
1011,-0.000589,0.0637579,-1.54689
1012,-0.000588,0.0652759,-1.54385
1013,-0.000587,0.0652759,-1.54385
1014,-0.000586,0.0622398,-1.53778
1015,-0.000585,0.0622398,-1.53778
1016,-0.000584,0.0622398,-1.53322
1017,-0.000583,0.0622398,-1.53019
1018,-0.000582,0.0592037,-1.52715
1019,-0.000581,0.0607218,-1.52715
1020,-0.00058,0.0607218,-1.52412
1021,-0.000579,0.0622398,-1.52108
1022,-0.000578,0.0622398,-1.51653
1023,-0.000577,0.0622398,-1.51349
1024,-0.000576,0.0622398,-1.51349
1025,-0.000575,0.0607218,-1.51045
1026,-0.000574,0.0592037,-1.5059
1027,-0.000573,0.0576857,-1.50286
1028,-0.000572,0.0576857,-1.49983
1029,-0.000571,0.0592037,-1.49679
1030,-0.00057,0.0592037,-1.49224
1031,-0.000569,0.0546496,-1.4892
1032,-0.000568,0.0546496,-1.48617
1033,-0.000567,0.0531316,-1.48313
1034,-0.000566,0.0561676,-1.48009
1035,-0.000565,0.0546496,-1.47706
1036,-0.000564,0.0561676,-1.47098
1037,-0.000563,0.0561676,-1.46795
1038,-0.000562,0.0561676,-1.46339
1039,-0.000561,0.0561676,-1.46188
1040,-0.00056,0.0546496,-1.45884
1041,-0.000559,0.0546496,-1.4558
1042,-0.000558,0.0516135,-1.45125
1043,-0.000557,0.0531316,-1.44518
1044,-0.000556,0.0531316,-1.44214
1045,-0.000555,0.0516135,-1.43759
1046,-0.000554,0.0485774,-1.43455
1047,-0.000553,0.0485774,-1.43
1048,-0.000552,0.0485774,-1.42393
1049,-0.000551,0.0470594,-1.41937
1050,-0.00055,0.0500955,-1.41482
1051,-0.000549,0.0470594,-1.41026
1052,-0.000548,0.0500955,-1.40723
1053,-0.000547,0.0470594,-1.40115
1054,-0.000546,0.0485774,-1.39812
1055,-0.000545,0.0485774,-1.39205
1056,-0.000544,0.0425052,-1.38749
1057,-0.000543,0.0440233,-1.38294
1058,-0.000542,0.0440233,-1.37687
1059,-0.000541,0.0440233,-1.37231
1060,-0.00054,0.0409872,-1.36624
1061,-0.000539,0.0409872,-1.3632
1062,-0.000538,0.0409872,-1.35865
1063,-0.000537,0.0409872,-1.35106
1064,-0.000536,0.0409872,-1.34651
1065,-0.000535,0.0409872,-1.34043
1066,-0.000534,0.0409872,-1.33588
1067,-0.000533,0.0409872,-1.32829
1068,-0.000532,0.0394692,-1.32373
1069,-0.000531,0.0364331,-1.31918
1070,-0.00053,0.0364331,-1.31463
1071,-0.000529,0.0364331,-1.30704
1072,-0.000528,0.0364331,-1.30096
1073,-0.000527,0.034915,-1.29641
1074,-0.000526,0.0318789,-1.29034
1075,-0.000525,0.033397,-1.28275
1076,-0.000524,0.033397,-1.27668
1077,-0.000523,0.033397,-1.2706
1078,-0.000522,0.033397,-1.26453
1079,-0.000521,0.033397,-1.25846
1080,-0.00052,0.033397,-1.25239
1081,-0.000519,0.033397,-1.24631
1082,-0.000518,0.0303609,-1.24024
1083,-0.000517,0.0288428,-1.23113
1084,-0.000516,0.0303609,-1.22962
1085,-0.000515,0.0303609,-1.22203
1086,-0.000514,0.0273248,-1.21444
1087,-0.000513,0.0242887,-1.20836
1088,-0.000512,0.0258068,-1.20077
1089,-0.000511,0.0258068,-1.19318
1090,-0.00051,0.0258068,-1.18711
1091,-0.000509,0.0258068,-1.18104
1092,-0.000508,0.0258068,-1.17497
1093,-0.000507,0.0258068,-1.16738
1094,-0.000506,0.0258068,-1.1613
1095,-0.000505,0.0212526,-1.15371
1096,-0.000504,0.0212526,-1.14612
1097,-0.000503,0.0212526,-1.14005
1098,-0.000502,0.0197346,-1.13398
1099,-0.000501,0.0197346,-1.12335
1100,-0.0005,0.0197346,-1.11728
1101,-0.000499,0.0197346,-1.10969
1102,-0.000498,0.0197346,-1.1021
1103,-0.000497,0.0166985,-1.09603
1104,-0.000496,0.0182165,-1.08996
1105,-0.000495,0.0182165,-1.07933
1106,-0.000494,0.0182165,-1.07478
1107,-0.000493,0.0151804,-1.06719
1108,-0.000492,0.0166985,-1.05656
1109,-0.000491,0.0136624,-1.052
1110,-0.00049,0.0136624,-1.0429
1111,-0.000489,0.0106263,-1.03682
1112,-0.000488,0.0106263,-1.0262
1113,-0.000487,0.0136624,-1.02013
1114,-0.000486,0.0106263,-1.0095
1115,-0.000485,0.0121444,-1.00343
1116,-0.000484,0.0121444,-0.995837
1117,-0.000483,0.0106263,-0.988247
1118,-0.000482,0.0106263,-0.982175
1119,-0.000481,0.00607218,-0.971548
1120,-0.00048,0.00910827,-0.963958
1121,-0.000479,0.00759022,-0.95485
1122,-0.000478,0.00759022,-0.948778
1123,-0.000477,0.00455413,-0.938151
1124,-0.000476,0.00607218,-0.929043
1125,-0.000475,0.00607218,-0.922971
1126,-0.000474,0.00607218,-0.913863
1127,-0.000473,0.00607218,-0.904754
1128,-0.000472,0.00607218,-0.895646
1129,-0.000471,0.00455413,-0.888056
1130,-0.00047,0.00455413,-0.878948
1131,-0.000469,0.00151804,-0.871357
1132,-0.000468,0.00303609,-0.863767
1133,-0.000467,0,-0.856177
1134,-0.000466,0,-0.844033
1135,-0.000465,0,-0.83796
1136,-0.000464,0,-0.825816
1137,-0.000463,-0.00455413,-0.819744
1138,-0.000462,0,-0.810636
1139,-0.000461,0,-0.800009
1140,-0.00046,0,-0.793937
1141,-0.000459,0,-0.784829
1142,-0.000458,-0.00455413,-0.774203
1143,-0.000457,-0.00455413,-0.765094
1144,-0.000456,-0.00607218,-0.757504
1145,-0.000455,-0.00455413,-0.746878
1146,-0.000454,-0.00759022,-0.739288
1147,-0.000453,-0.00759022,-0.725625
1148,-0.000452,-0.00759022,-0.721071
1149,-0.000451,-0.00607218,-0.708927
1150,-0.00045,-0.00910827,-0.699818
1151,-0.000449,-0.00910827,-0.692228
1152,-0.000448,-0.00910827,-0.681602
1153,-0.000447,-0.00910827,-0.674012
1154,-0.000446,-0.00910827,-0.663385
1155,-0.000445,-0.00910827,-0.655795
1156,-0.000444,-0.00910827,-0.648205
1157,-0.000443,-0.00910827,-0.637579
1158,-0.000442,-0.0121444,-0.629988
1159,-0.000441,-0.0121444,-0.617844
1160,-0.00044,-0.0121444,-0.611772
1161,-0.000439,-0.0121444,-0.602664
1162,-0.000438,-0.0121444,-0.593555
1163,-0.000437,-0.0121444,-0.584447
1164,-0.000436,-0.0121444,-0.576857
1165,-0.000435,-0.0121444,-0.566231
1166,-0.000434,-0.0151804,-0.55864
1167,-0.000433,-0.0151804,-0.548014
1168,-0.000432,-0.0151804,-0.538906
1169,-0.000431,-0.0166985,-0.531316
1170,-0.00043,-0.0197346,-0.520689
1171,-0.000429,-0.0182165,-0.511581
1172,-0.000428,-0.0182165,-0.502473
1173,-0.000427,-0.0197346,-0.493364
1174,-0.000426,-0.0182165,-0.482738
1175,-0.000425,-0.0182165,-0.47363
1176,-0.000424,-0.0197346,-0.464522
1177,-0.000423,-0.0212526,-0.456931
1178,-0.000422,-0.0212526,-0.446305
1179,-0.000421,-0.0227707,-0.435679
1180,-0.00042,-0.0212526,-0.42657
1181,-0.000419,-0.0258068,-0.417462
1182,-0.000418,-0.0258068,-0.406836
1183,-0.000417,-0.0273248,-0.397728
1184,-0.000416,-0.0273248,-0.387101
1185,-0.000415,-0.0273248,-0.377993
1186,-0.000414,-0.0273248,-0.370403
1187,-0.000413,-0.0273248,-0.358258
1188,-0.000412,-0.0258068,-0.350668
1189,-0.000411,-0.0288428,-0.340042
1190,-0.00041,-0.0303609,-0.330934
1191,-0.000409,-0.0303609,-0.320307
1192,-0.000408,-0.0288428,-0.311199
1193,-0.000407,-0.0318789,-0.305127
1194,-0.000406,-0.0318789,-0.291465
1195,-0.000405,-0.033397,-0.282356
1196,-0.000404,-0.033397,-0.270212
1197,-0.000403,-0.033397,-0.261104
1198,-0.000402,-0.0318789,-0.251995
1199,-0.000401,-0.033397,-0.242887
1200,-0.0004,-0.0318789,-0.233779
1201,-0.000399,-0.034915,-0.223153
1202,-0.000398,-0.0364331,-0.214044
1203,-0.000397,-0.0364331,-0.203418
1204,-0.000396,-0.034915,-0.19431
1205,-0.000395,-0.0379511,-0.183683
1206,-0.000394,-0.0379511,-0.171539
1207,-0.000393,-0.0409872,-0.160913
1208,-0.000392,-0.0409872,-0.151804
1209,-0.000391,-0.0409872,-0.142696
1210,-0.00039,-0.0409872,-0.130552
1211,-0.000389,-0.0379511,-0.121444
1212,-0.000388,-0.0394692,-0.110817
1213,-0.000387,-0.0394692,-0.101709
1214,-0.000386,-0.0425052,-0.0910827
1215,-0.000385,-0.0440233,-0.0819744
1216,-0.000384,-0.0440233,-0.0728661
1217,-0.000383,-0.0425052,-0.0622398
1218,-0.000382,-0.0455413,-0.0531316
1219,-0.000381,-0.0485774,-0.0425052
1220,-0.00038,-0.0485774,-0.0318789
1221,-0.000379,-0.0485774,-0.0212526
1222,-0.000378,-0.0485774,-0.0121444
1223,-0.000377,-0.0485774,0.00151804
1224,-0.000376,-0.0485774,0.00607218
1225,-0.000375,-0.0485774,0.0182165
1226,-0.000374,-0.0500955,0.0273248
1227,-0.000373,-0.0516135,0.0379511
1228,-0.000372,-0.0546496,0.0485774
1229,-0.000371,-0.0531316,0.0576857
1230,-0.00037,-0.0546496,0.0667939
1231,-0.000369,-0.0546496,0.0789383
1232,-0.000368,-0.0576857,0.0880466
1233,-0.000367,-0.0576857,0.100191
1234,-0.000366,-0.0546496,0.109299
1235,-0.000365,-0.0561676,0.119925
1236,-0.000364,-0.0546496,0.13207
1237,-0.000363,-0.0561676,0.141178
1238,-0.000362,-0.0576857,0.150286
1239,-0.000361,-0.0576857,0.159395
1240,-0.00036,-0.0576857,0.171539
1241,-0.000359,-0.0607218,0.180647
1242,-0.000358,-0.0576857,0.189756
1243,-0.000357,-0.0607218,0.2019
1244,-0.000356,-0.0592037,0.212526
1245,-0.000355,-0.0607218,0.221634
1246,-0.000354,-0.0637579,0.233779
1247,-0.000353,-0.0637579,0.242887
1248,-0.000352,-0.0637579,0.255031
1249,-0.000351,-0.0637579,0.26414
1250,-0.00035,-0.0637579,0.273248
1251,-0.000349,-0.0637579,0.283874
1252,-0.000348,-0.0637579,0.292983
1253,-0.000347,-0.0622398,0.305127
1254,-0.000346,-0.0622398,0.314235
1255,-0.000345,-0.0652759,0.324861
1256,-0.000344,-0.0667939,0.33397
1257,-0.000343,-0.0667939,0.343078
1258,-0.000342,-0.0637579,0.353704
1259,-0.000341,-0.0637579,0.362813
1260,-0.00034,-0.06983,0.374957
1261,-0.000339,-0.06983,0.384065
1262,-0.000338,-0.06983,0.394692
1263,-0.000337,-0.06983,0.406836
1264,-0.000336,-0.06983,0.415944
1265,-0.000335,-0.06983,0.425052
1266,-0.000334,-0.06983,0.434161
1267,-0.000333,-0.06983,0.444787
1268,-0.000332,-0.06983,0.453895
1269,-0.000331,-0.06983,0.464522
1270,-0.00033,-0.06983,0.47363
1271,-0.000329,-0.0743842,0.484256
1272,-0.000328,-0.0743842,0.493364
1273,-0.000327,-0.0743842,0.503991
1274,-0.000326,-0.0743842,0.514617
1275,-0.000325,-0.0728661,0.523725
1276,-0.000324,-0.0774203,0.534352
1277,-0.000323,-0.0774203,0.54346
1278,-0.000322,-0.0774203,0.555604
1279,-0.000321,-0.0774203,0.564712
1280,-0.00032,-0.0774203,0.575339
1281,-0.000319,-0.0774203,0.584447
1282,-0.000318,-0.0774203,0.595073
1283,-0.000317,-0.0774203,0.602664
1284,-0.000316,-0.0774203,0.61329
1285,-0.000315,-0.0774203,0.623916
1286,-0.000314,-0.0759022,0.631506
1287,-0.000313,-0.0789383,0.640615
1288,-0.000312,-0.0804563,0.651241
1289,-0.000311,-0.0804563,0.660349
1290,-0.00031,-0.0804563,0.670976
1291,-0.000309,-0.0804563,0.680084
1292,-0.000308,-0.0789383,0.69071
1293,-0.000307,-0.0819744,0.699818
1294,-0.000306,-0.0834924,0.707409
1295,-0.000305,-0.0850105,0.718035
1296,-0.000304,-0.0834924,0.728661
1297,-0.000303,-0.0834924,0.73777
1298,-0.000302,-0.0834924,0.746878
1299,-0.000301,-0.0834924,0.755986
1300,-0.0003,-0.0819744,0.766612
1301,-0.000299,-0.0850105,0.775721
1302,-0.000298,-0.0834924,0.784829
1303,-0.000297,-0.0865285,0.793937
1304,-0.000296,-0.0834924,0.803045
1305,-0.000295,-0.0850105,0.812154
1306,-0.000294,-0.0850105,0.819744
1307,-0.000293,-0.0865285,0.83037
1308,-0.000292,-0.0880466,0.839478
1309,-0.000291,-0.0880466,0.847069
1310,-0.00029,-0.0880466,0.857695
1311,-0.000289,-0.0880466,0.866803
1312,-0.000288,-0.0865285,0.87743
1313,-0.000287,-0.0865285,0.883502
1314,-0.000286,-0.0865285,0.89261
1315,-0.000285,-0.0910827,0.903236
1316,-0.000284,-0.0910827,0.910827
1317,-0.000283,-0.0910827,0.921453
1318,-0.000282,-0.0910827,0.930561
1319,-0.000281,-0.0910827,0.936633
1320,-0.00028,-0.0910827,0.948778
1321,-0.000279,-0.0880466,0.957886
1322,-0.000278,-0.0910827,0.963958
1323,-0.000277,-0.0910827,0.974584
1324,-0.000276,-0.0910827,0.983693
1325,-0.000275,-0.0910827,0.992801
1326,-0.000274,-0.0910827,1.00191
1327,-0.000273,-0.0910827,1.00798
1328,-0.000272,-0.0910827,1.01709
1329,-0.000271,-0.0895646,1.02468
1330,-0.00027,-0.0910827,1.03227
1331,-0.000269,-0.0910827,1.04138
1332,-0.000268,-0.0956368,1.04897
1333,-0.000267,-0.0926007,1.05808
1334,-0.000266,-0.0926007,1.06719
1335,-0.000265,-0.0926007,1.07326
1336,-0.000264,-0.0926007,1.08237
1337,-0.000263,-0.0956368,1.08996
1338,-0.000262,-0.0926007,1.09603
1339,-0.000261,-0.0926007,1.10665
1340,-0.00026,-0.0956368,1.11424
1341,-0.000259,-0.0910827,1.12032
1342,-0.000258,-0.0956368,1.12942
1343,-0.000257,-0.0986729,1.13702
1344,-0.000256,-0.0971548,1.14461
1345,-0.000255,-0.0971548,1.15371
1346,-0.000254,-0.0986729,1.1613
1347,-0.000253,-0.0956368,1.17041
1348,-0.000252,-0.100191,1.178
1349,-0.000251,-0.0971548,1.18559
1350,-0.00025,-0.0986729,1.19318
1351,-0.000249,-0.0956368,1.20077
1352,-0.000248,-0.0956368,1.20836
1353,-0.000247,-0.100191,1.21444
1354,-0.000246,-0.0971548,1.22506
1355,-0.000245,-0.0986729,1.23113
1356,-0.000244,-0.0971548,1.23721
1357,-0.000243,-0.0971548,1.2448
1358,-0.000242,-0.0971548,1.2539
1359,-0.000241,-0.0971548,1.25846
1360,-0.00024,-0.0971548,1.26605
1361,-0.000239,-0.0971548,1.27212
1362,-0.000238,-0.0971548,1.27819
1363,-0.000237,-0.0971548,1.28427
1364,-0.000236,-0.0971548,1.29489
1365,-0.000235,-0.0971548,1.29793
1366,-0.000234,-0.0971548,1.30704
1367,-0.000233,-0.0971548,1.31311
1368,-0.000232,-0.0971548,1.31918
1369,-0.000231,-0.0971548,1.32373
1370,-0.00023,-0.0971548,1.32981
1371,-0.000229,-0.0971548,1.33892
1372,-0.000228,-0.0971548,1.34499
1373,-0.000227,-0.0971548,1.34802
1374,-0.000226,-0.100191,1.35713
1375,-0.000225,-0.100191,1.3632
1376,-0.000224,-0.100191,1.36928
1377,-0.000223,-0.100191,1.37535
1378,-0.000222,-0.100191,1.38294
1379,-0.000221,-0.100191,1.38901
1380,-0.00022,-0.100191,1.39508
1381,-0.000219,-0.100191,1.40115
1382,-0.000218,-0.100191,1.40571
1383,-0.000217,-0.100191,1.4133
1384,-0.000216,-0.100191,1.41937
1385,-0.000215,-0.100191,1.42393
1386,-0.000214,-0.0986729,1.43152
1387,-0.000213,-0.101709,1.43455
1388,-0.000212,-0.100191,1.44214
1389,-0.000211,-0.100191,1.44518
1390,-0.00021,-0.101709,1.45277
1391,-0.000209,-0.0986729,1.45884
1392,-0.000208,-0.0986729,1.46339
1393,-0.000207,-0.101709,1.46947
1394,-0.000206,-0.100191,1.47402
1395,-0.000205,-0.100191,1.48009
1396,-0.000204,-0.100191,1.48465
1397,-0.000203,-0.100191,1.4892
1398,-0.000202,-0.100191,1.49527
1399,-0.000201,-0.100191,1.49983
1400,-0.0002,-0.100191,1.50438
1401,-0.000199,-0.100191,1.51045
1402,-0.000198,-0.100191,1.51501
1403,-0.000197,-0.100191,1.52108
1404,-0.000196,-0.0986729,1.52412
1405,-0.000195,-0.101709,1.52867
1406,-0.000194,-0.101709,1.53474
1407,-0.000193,-0.0986729,1.53778
1408,-0.000192,-0.100191,1.54233
1409,-0.000191,-0.100191,1.54841
1410,-0.00019,-0.101709,1.55296
1411,-0.000189,-0.0986729,1.556
1412,-0.000188,-0.100191,1.56055
1413,-0.000187,-0.100191,1.56662
1414,-0.000186,-0.101709,1.56814
1415,-0.000185,-0.0986729,1.57421
1416,-0.000184,-0.100191,1.57725
1417,-0.000183,-0.100191,1.5818
1418,-0.000182,-0.100191,1.58332
1419,-0.000181,-0.100191,1.59091
1420,-0.00018,-0.0986729,1.59243
1421,-0.000179,-0.101709,1.5985
1422,-0.000178,-0.0971548,1.60154
1423,-0.000177,-0.0971548,1.60457
1424,-0.000176,-0.0971548,1.60761
1425,-0.000175,-0.0971548,1.61216
1426,-0.000174,-0.0986729,1.61368
1427,-0.000173,-0.0956368,1.61672
1428,-0.000172,-0.0971548,1.61975
1429,-0.000171,-0.0971548,1.62279
1430,-0.00017,-0.0971548,1.62431
1431,-0.000169,-0.0971548,1.62734
1432,-0.000168,-0.0971548,1.63038
1433,-0.000167,-0.0971548,1.63342
1434,-0.000166,-0.0971548,1.63645
1435,-0.000165,-0.0971548,1.63949
1436,-0.000164,-0.0971548,1.64101
1437,-0.000163,-0.0971548,1.64404
1438,-0.000162,-0.0971548,1.64708
1439,-0.000161,-0.0971548,1.6486
1440,-0.00016,-0.0956368,1.65163
1441,-0.000159,-0.0986729,1.65315
1442,-0.000158,-0.0971548,1.6577
1443,-0.000157,-0.0971548,1.65922
1444,-0.000156,-0.0971548,1.66226
1445,-0.000155,-0.0956368,1.66378
1446,-0.000154,-0.100191,1.66681
1447,-0.000153,-0.0956368,1.66833
1448,-0.000152,-0.100191,1.67137
1449,-0.000151,-0.0956368,1.67288
1450,-0.00015,-0.0986729,1.67592
1451,-0.000149,-0.0971548,1.67896
1452,-0.000148,-0.0971548,1.68047
1453,-0.000147,-0.0971548,1.68351
1454,-0.000146,-0.0926007,1.68503
1455,-0.000145,-0.0926007,1.68503
1456,-0.000144,-0.0910827,1.68655
1457,-0.000143,-0.0971548,1.68807
1458,-0.000142,-0.0910827,1.68958
1459,-0.000141,-0.0926007,1.6911
1460,-0.00014,-0.0926007,1.6911
1461,-0.000139,-0.0926007,1.69414
1462,-0.000138,-0.0910827,1.69566
1463,-0.000137,-0.0956368,1.69414
1464,-0.000136,-0.0880466,1.69717
1465,-0.000135,-0.0895646,1.69566
1466,-0.000134,-0.0895646,1.69869
1467,-0.000133,-0.0895646,1.69869
1468,-0.000132,-0.0895646,1.69717
1469,-0.000131,-0.0895646,1.70173
1470,-0.00013,-0.0880466,1.69869
1471,-0.000129,-0.0910827,1.70173
1472,-0.000128,-0.0910827,1.69869
1473,-0.000127,-0.0910827,1.70325
1474,-0.000126,-0.0880466,1.70325
1475,-0.000125,-0.0895646,1.70325
1476,-0.000124,-0.0895646,1.70325
1477,-0.000123,-0.0910827,1.70476
1478,-0.000122,-0.0910827,1.70476
1479,-0.000121,-0.0895646,1.70476
1480,-0.00012,-0.0895646,1.70628
1481,-0.000119,-0.0865285,1.70628
1482,-0.000118,-0.0865285,1.70628
1483,-0.000117,-0.0865285,1.70476
1484,-0.000116,-0.0865285,1.70476
1485,-0.000115,-0.0865285,1.70476
1486,-0.000114,-0.0865285,1.70476
1487,-0.000113,-0.0865285,1.70476
1488,-0.000112,-0.0865285,1.70173
1489,-0.000111,-0.0819744,1.70173
1490,-0.00011,-0.0834924,1.70173
1491,-0.000109,-0.0834924,1.70173
1492,-0.000108,-0.0834924,1.69869
1493,-0.000107,-0.0834924,1.69566
1494,-0.000106,-0.0834924,1.69566
1495,-0.000105,-0.0834924,1.69566
1496,-0.000104,-0.0834924,1.69566
1497,-0.000103,-0.0834924,1.69414
1498,-0.000102,-0.0834924,1.6911
1499,-0.000101,-0.0834924,1.69262
1500,-0.0001,-0.0834924,1.68958
1501,-9.9e-05,-0.0834924,1.68958
1502,-9.8e-05,-0.0804563,1.68958
1503,-9.7e-05,-0.0789383,1.68655
1504,-9.6e-05,-0.0804563,1.68655
1505,-9.5e-05,-0.0804563,1.68351
1506,-9.4e-05,-0.0804563,1.68199
1507,-9.3e-05,-0.0804563,1.68199
1508,-9.2e-05,-0.0774203,1.67896
1509,-9.1e-05,-0.0743842,1.67592
1510,-9e-05,-0.0743842,1.67288
1511,-8.9e-05,-0.0789383,1.67137
1512,-8.8e-05,-0.0759022,1.66833
1513,-8.7e-05,-0.0774203,1.66681
1514,-8.6e-05,-0.0774203,1.66529
1515,-8.5e-05,-0.0774203,1.66226
1516,-8.4e-05,-0.0759022,1.65922
1517,-8.3e-05,-0.0774203,1.65922
1518,-8.2e-05,-0.0774203,1.65619
1519,-8.1e-05,-0.0774203,1.65315
1520,-8e-05,-0.0743842,1.65011
1521,-7.9e-05,-0.0728661,1.6486
1522,-7.8e-05,-0.0728661,1.64556
1523,-7.7e-05,-0.0728661,1.64252
1524,-7.6e-05,-0.0728661,1.64101
1525,-7.5e-05,-0.0728661,1.63797
1526,-7.4e-05,-0.068312,1.63493
1527,-7.3e-05,-0.068312,1.62886
1528,-7.2e-05,-0.068312,1.62583
1529,-7.1e-05,-0.068312,1.62279
1530,-7e-05,-0.068312,1.61975
1531,-6.9e-05,-0.068312,1.6152
1532,-6.8e-05,-0.068312,1.61672
1533,-6.7e-05,-0.0667939,1.60761
1534,-6.6e-05,-0.06983,1.60609
1535,-6.5e-05,-0.06983,1.60305
1536,-6.4e-05,-0.0667939,1.60002
1537,-6.3e-05,-0.0652759,1.59698
1538,-6.2e-05,-0.0622398,1.59395
1539,-6.1e-05,-0.0667939,1.58787
1540,-6e-05,-0.0652759,1.58332
1541,-5.9e-05,-0.0622398,1.58028
1542,-5.8e-05,-0.0622398,1.57573
1543,-5.7e-05,-0.0652759,1.57269
1544,-5.6e-05,-0.0607218,1.56662
1545,-5.5e-05,-0.0622398,1.5651
1546,-5.4e-05,-0.0622398,1.55751
1547,-5.3e-05,-0.0622398,1.556
1548,-5.2e-05,-0.0607218,1.54992
1549,-5.1e-05,-0.0637579,1.54841
1550,-5e-05,-0.0607218,1.54385
1551,-4.9e-05,-0.0576857,1.53778
1552,-4.8e-05,-0.0592037,1.53322
1553,-4.7e-05,-0.0592037,1.53019
1554,-4.6e-05,-0.0592037,1.52412
1555,-4.5e-05,-0.0592037,1.52108
1556,-4.4e-05,-0.0546496,1.51501
1557,-4.3e-05,-0.0561676,1.51045
1558,-4.2e-05,-0.0561676,1.50438
1559,-4.1e-05,-0.0561676,1.49983
1560,-4e-05,-0.0561676,1.49527
1561,-3.9e-05,-0.0561676,1.49072
1562,-3.8e-05,-0.0561676,1.48465
1563,-3.7e-05,-0.0546496,1.48009
1564,-3.6e-05,-0.0546496,1.47402
1565,-3.5e-05,-0.0516135,1.46947
1566,-3.4e-05,-0.0516135,1.46491
1567,-3.3e-05,-0.0516135,1.45732
1568,-3.2e-05,-0.0516135,1.45429
1569,-3.1e-05,-0.0485774,1.44518
1570,-3e-05,-0.0485774,1.44214
1571,-2.9e-05,-0.0485774,1.43607
1572,-2.8e-05,-0.0440233,1.43
1573,-2.7e-05,-0.0485774,1.42393
1574,-2.6e-05,-0.0485774,1.41634
1575,-2.5e-05,-0.0500955,1.4133
1576,-2.4e-05,-0.0455413,1.40723
1577,-2.3e-05,-0.0455413,1.39964
1578,-2.2e-05,-0.0425052,1.39508
1579,-2.1e-05,-0.0425052,1.38901
1580,-2e-05,-0.0425052,1.38446
1581,-1.9e-05,-0.0425052,1.37687
1582,-1.8e-05,-0.0409872,1.37079
1583,-1.7e-05,-0.0409872,1.36472
1584,-1.6e-05,-0.0409872,1.35865
1585,-1.5e-05,-0.0409872,1.35106
1586,-1.4e-05,-0.0409872,1.34499
1587,-1.3e-05,-0.0409872,1.33892
1588,-1.2e-05,-0.0409872,1.32981
1589,-1.1e-05,-0.0409872,1.32373
1590,-1e-05,-0.0379511,1.31766
1591,-9e-06,-0.0379511,1.31159
1592,-8e-06,-0.0364331,1.304
1593,-7e-06,-0.0379511,1.29641
1594,-6e-06,-0.034915,1.29034
1595,-5e-06,-0.034915,1.28275
1596,-4e-06,-0.034915,1.27668
1597,-3e-06,-0.034915,1.2706
1598,-2e-06,-0.034915,1.25998
1599,-1e-06,-0.034915,1.2539
1600,0,-0.034915,1.24783
1601,1e-06,-0.033397,1.24024
1602,2e-06,-0.033397,1.23265
1603,3e-06,-0.0303609,1.2281
1604,4e-06,-0.0303609,1.21899
1605,5e-06,-0.0318789,1.2114
1606,6e-06,-0.0303609,1.20381
1607,7e-06,-0.0273248,1.19774
1608,8e-06,-0.0288428,1.19015
1609,9e-06,-0.0258068,1.18104
1610,1e-05,-0.0273248,1.17345
1611,1.1e-05,-0.0273248,1.16586
1612,1.2e-05,-0.0273248,1.15827
1613,1.3e-05,-0.0273248,1.15068
1614,1.4e-05,-0.0288428,1.14309
1615,1.5e-05,-0.0212526,1.1355
1616,1.6e-05,-0.0227707,1.12487
1617,1.7e-05,-0.0212526,1.1188
1618,1.8e-05,-0.0212526,1.11121
1619,1.9e-05,-0.0197346,1.10514
1620,2e-05,-0.0197346,1.09299
1621,2.1e-05,-0.0197346,1.08692
1622,2.2e-05,-0.0197346,1.08085
1623,2.3e-05,-0.0197346,1.0687
1624,2.4e-05,-0.0197346,1.06263
1625,2.5e-05,-0.0182165,1.05504
1626,2.6e-05,-0.0182165,1.04745
1627,2.7e-05,-0.0166985,1.03834
1628,2.8e-05,-0.0166985,1.02772
1629,2.9e-05,-0.0151804,1.02164
1630,3e-05,-0.0151804,1.01254
1631,3.1e-05,-0.0121444,1.00343
1632,3.2e-05,-0.0136624,0.995837
1633,3.3e-05,-0.0121444,0.985211
1634,3.4e-05,-0.0121444,0.976102
1635,3.5e-05,-0.0136624,0.97003
1636,3.6e-05,-0.0136624,0.959404
1637,3.7e-05,-0.0136624,0.951814
1638,3.8e-05,-0.0106263,0.944224
1639,3.9e-05,-0.00910827,0.935115
1640,4e-05,-0.00910827,0.926007
1641,4.1e-05,-0.00910827,0.915381
1642,4.2e-05,-0.0106263,0.906272
1643,4.3e-05,-0.00910827,0.9002
1644,4.4e-05,-0.0106263,0.889574
1645,4.5e-05,-0.0106263,0.880466
1646,4.6e-05,-0.0106263,0.874394
1647,4.7e-05,-0.0106263,0.865285
1648,4.8e-05,-0.0106263,0.856177
1649,4.9e-05,-0.0106263,0.847069
1650,5e-05,-0.00607218,0.840997
1651,5.1e-05,-0.00759022,0.83037
1652,5.2e-05,-0.00759022,0.821262
1653,5.3e-05,-0.00759022,0.81519
1654,5.4e-05,-0.00303609,0.806082
1655,5.5e-05,-0.00455413,0.795455
1656,5.6e-05,-0.00455413,0.789383
1657,5.7e-05,-0.00455413,0.777239
1658,5.8e-05,-0.00455413,0.769648
1659,5.9e-05,-0.00455413,0.76054
1660,6e-05,-0.00455413,0.75295
1661,6.1e-05,0,0.743842
1662,6.2e-05,0.00303609,0.733215
1663,6.3e-05,0,0.725625
1664,6.4e-05,0.00151804,0.716517
1665,6.5e-05,0.00151804,0.707409
1666,6.6e-05,0.00455413,0.6983
1667,6.7e-05,0.00303609,0.687674
1668,6.8e-05,0.00607218,0.678566
1669,6.9e-05,0.00607218,0.670976
1670,7e-05,0.00607218,0.660349
1671,7.1e-05,0.00303609,0.651241
1672,7.2e-05,0.00455413,0.642133
1673,7.3e-05,0.00759022,0.634543
1674,7.4e-05,0.00759022,0.625434
1675,7.5e-05,0.00910827,0.614808
1676,7.6e-05,0.00759022,0.6057
1677,7.7e-05,0.0106263,0.595073
1678,7.8e-05,0.0106263,0.585965
1679,7.9e-05,0.0136624,0.576857
1680,8e-05,0.0106263,0.566231
1681,8.1e-05,0.0121444,0.557122
1682,8.2e-05,0.0121444,0.544978
1683,8.3e-05,0.0121444,0.538906
1684,8.4e-05,0.0106263,0.529797
1685,8.5e-05,0.0151804,0.519171
1686,8.6e-05,0.0151804,0.510063
1687,8.7e-05,0.0151804,0.499437
1688,8.8e-05,0.0166985,0.490328
1689,8.9e-05,0.0182165,0.478184
1690,9e-05,0.0182165,0.469076
1691,9.1e-05,0.0197346,0.459967
1692,9.2e-05,0.0197346,0.449341
1693,9.3e-05,0.0182165,0.440233
1694,9.4e-05,0.0182165,0.429607
1695,9.5e-05,0.0197346,0.420498
1696,9.6e-05,0.0197346,0.409872
1697,9.7e-05,0.0197346,0.400764
1698,9.8e-05,0.0242887,0.391655
1699,9.9e-05,0.0242887,0.381029
1700,0.0001,0.0242887,0.371921
1701,0.000101,0.0242887,0.361295
1702,0.000102,0.0273248,0.352186
1703,0.000103,0.0273248,0.340042
1704,0.000104,0.0273248,0.330934
1705,0.000105,0.0242887,0.320307
1706,0.000106,0.0273248,0.311199
1707,0.000107,0.0273248,0.302091
1708,0.000108,0.0273248,0.291465
1709,0.000109,0.0273248,0.282356
1710,0.00011,0.0303609,0.270212
1711,0.000111,0.0303609,0.259586
1712,0.000112,0.0303609,0.253513
1713,0.000113,0.0303609,0.241369
1714,0.000114,0.0318789,0.232261
1715,0.000115,0.034915,0.221634
1716,0.000116,0.034915,0.211008
1717,0.000117,0.0318789,0.200382
1718,0.000118,0.033397,0.189756
1719,0.000119,0.033397,0.179129
1720,0.00012,0.033397,0.170021
1721,0.000121,0.034915,0.157877
1722,0.000122,0.034915,0.148768
1723,0.000123,0.0379511,0.141178
1724,0.000124,0.0379511,0.127516
1725,0.000125,0.0379511,0.118407
1726,0.000126,0.0364331,0.107781
1727,0.000127,0.0394692,0.0986729
1728,0.000128,0.0409872,0.0880466
1729,0.000129,0.0409872,0.0759022
1730,0.00013,0.0409872,0.0652759
1731,0.000131,0.0409872,0.0576857
1732,0.000132,0.0409872,0.0440233
1733,0.000133,0.0394692,0.034915
1734,0.000134,0.0425052,0.0258068
1735,0.000135,0.0394692,0.0151804
1736,0.000136,0.0440233,0.00607218
1737,0.000137,0.0440233,-0.00607218
1738,0.000138,0.0440233,-0.0151804
1739,0.000139,0.0440233,-0.0273248
1740,0.00014,0.0440233,-0.0364331
1741,0.000141,0.0485774,-0.0455413
1742,0.000142,0.0485774,-0.0592037
1743,0.000143,0.0485774,-0.0667939
1744,0.000144,0.0485774,-0.0789383
1745,0.000145,0.0485774,-0.0880466
1746,0.000146,0.0485774,-0.0986729
1747,0.000147,0.0470594,-0.107781
1748,0.000148,0.0485774,-0.118407
1749,0.000149,0.0470594,-0.127516
1750,0.00015,0.0516135,-0.13966
1751,0.000151,0.0516135,-0.148768
1752,0.000152,0.0516135,-0.159395
1753,0.000153,0.0516135,-0.170021
1754,0.000154,0.0500955,-0.179129
1755,0.000155,0.0546496,-0.189756
1756,0.000156,0.0546496,-0.2019
1757,0.000157,0.0546496,-0.212526
1758,0.000158,0.0546496,-0.220116
1759,0.000159,0.0546496,-0.233779
1760,0.00016,0.0546496,-0.239851
1761,0.000161,0.0546496,-0.251995
1762,0.000162,0.0546496,-0.262622
1763,0.000163,0.0531316,-0.27173
1764,0.000164,0.0546496,-0.282356
1765,0.000165,0.0576857,-0.291465
1766,0.000166,0.0592037,-0.302091
1767,0.000167,0.0561676,-0.311199
1768,0.000168,0.0576857,-0.321825
1769,0.000169,0.0576857,-0.332452
1770,0.00017,0.0592037,-0.34156
1771,0.000171,0.0592037,-0.350668
1772,0.000172,0.0622398,-0.362813
1773,0.000173,0.0622398,-0.371921
1774,0.000174,0.0592037,-0.381029
1775,0.000175,0.0607218,-0.390137
1776,0.000176,0.0607218,-0.400764
1777,0.000177,0.0607218,-0.412908
1778,0.000178,0.0622398,-0.420498
1779,0.000179,0.0622398,-0.429607
1780,0.00018,0.0622398,-0.440233
1781,0.000181,0.0607218,-0.449341
1782,0.000182,0.0652759,-0.458449
1783,0.000183,0.0622398,-0.469076
1784,0.000184,0.0652759,-0.478184
1785,0.000185,0.0667939,-0.48881
1786,0.000186,0.0637579,-0.4964
1787,0.000187,0.0667939,-0.508545
1788,0.000188,0.0713481,-0.517653
1789,0.000189,0.0713481,-0.526761
1790,0.00019,0.068312,-0.537388
1791,0.000191,0.068312,-0.546496
1792,0.000192,0.0667939,-0.55864
1793,0.000193,0.0713481,-0.564712
1794,0.000194,0.0713481,-0.578375
1795,0.000195,0.0713481,-0.585965
1796,0.000196,0.068312,-0.595073
1797,0.000197,0.068312,-0.6057
1798,0.000198,0.068312,-0.61329
1799,0.000199,0.068312,-0.62088
1800,0.0002,0.0743842,-0.631506
1801,0.000201,0.0743842,-0.640615
1802,0.000202,0.0743842,-0.651241
1803,0.000203,0.0743842,-0.660349
1804,0.000204,0.0743842,-0.670976
1805,0.000205,0.0743842,-0.678566
1806,0.000206,0.0728661,-0.687674
1807,0.000207,0.0774203,-0.695264
1808,0.000208,0.0774203,-0.704373
1809,0.000209,0.0789383,-0.714999
1810,0.00021,0.0759022,-0.724107
1811,0.000211,0.0774203,-0.733215
1812,0.000212,0.0774203,-0.74536
1813,0.000213,0.0774203,-0.751432
1814,0.000214,0.0774203,-0.763576
1815,0.000215,0.0774203,-0.769648
1816,0.000216,0.0774203,-0.780275
1817,0.000217,0.0774203,-0.787865
1818,0.000218,0.0774203,-0.796973
1819,0.000219,0.0759022,-0.8076
1820,0.00022,0.0759022,-0.81519
1821,0.000221,0.0774203,-0.821262
1822,0.000222,0.0759022,-0.83037
1823,0.000223,0.0804563,-0.83796
1824,0.000224,0.0789383,-0.847069
1825,0.000225,0.0789383,-0.857695
1826,0.000226,0.0789383,-0.865285
1827,0.000227,0.0774203,-0.875912
1828,0.000228,0.0819744,-0.883502
1829,0.000229,0.0789383,-0.889574
1830,0.00023,0.0804563,-0.898682
1831,0.000231,0.0789383,-0.906272
1832,0.000232,0.0834924,-0.915381
1833,0.000233,0.0834924,-0.926007
1834,0.000234,0.0819744,-0.933597
1835,0.000235,0.0804563,-0.941187
1836,0.000236,0.0834924,-0.948778
1837,0.000237,0.0834924,-0.957886
1838,0.000238,0.0834924,-0.968512
1839,0.000239,0.0834924,-0.976102
1840,0.00024,0.0834924,-0.982175
1841,0.000241,0.0819744,-0.992801
1842,0.000242,0.0819744,-0.998873
1843,0.000243,0.0834924,-1.00646
1844,0.000244,0.0834924,-1.01405
1845,0.000245,0.0834924,-1.02316
1846,0.000246,0.0834924,-1.02923
1847,0.000247,0.0804563,-1.03834
1848,0.000248,0.0819744,-1.04441
1849,0.000249,0.0819744,-1.05352
1850,0.00025,0.0819744,-1.06111
1851,0.000251,0.0819744,-1.06719
1852,0.000252,0.0804563,-1.07326
1853,0.000253,0.0834924,-1.07933
1854,0.000254,0.0819744,-1.08844
1855,0.000255,0.0865285,-1.09451
1856,0.000256,0.0865285,-1.10058
1857,0.000257,0.0865285,-1.10817
1858,0.000258,0.0865285,-1.11728
1859,0.000259,0.0865285,-1.12335
1860,0.00026,0.0865285,-1.13094
1861,0.000261,0.0850105,-1.13853
1862,0.000262,0.0865285,-1.14461
1863,0.000263,0.0865285,-1.15371
1864,0.000264,0.0865285,-1.15979
1865,0.000265,0.0834924,-1.16586
1866,0.000266,0.0850105,-1.17193
1867,0.000267,0.0850105,-1.18104
1868,0.000268,0.0834924,-1.18711
1869,0.000269,0.0865285,-1.19166
1870,0.00027,0.0850105,-1.19925
1871,0.000271,0.0834924,-1.20533
1872,0.000272,0.0865285,-1.2114
1873,0.000273,0.0865285,-1.21747
1874,0.000274,0.0895646,-1.22506
1875,0.000275,0.0895646,-1.23113
1876,0.000276,0.0895646,-1.23721
1877,0.000277,0.0895646,-1.24783
1878,0.000278,0.0895646,-1.25239
1879,0.000279,0.0895646,-1.25846
1880,0.00028,0.0895646,-1.26453
1881,0.000281,0.0865285,-1.27212
1882,0.000282,0.0895646,-1.27668
1883,0.000283,0.0895646,-1.28275
1884,0.000284,0.0895646,-1.29034
1885,0.000285,0.0895646,-1.29641
1886,0.000286,0.0895646,-1.30248
1887,0.000287,0.0895646,-1.30855
1888,0.000288,0.0895646,-1.31614
1889,0.000289,0.0895646,-1.32222
1890,0.00029,0.0895646,-1.32525
1891,0.000291,0.0895646,-1.33132
1892,0.000292,0.0895646,-1.33892
1893,0.000293,0.0895646,-1.34499
1894,0.000294,0.0895646,-1.34802
1895,0.000295,0.0895646,-1.3541
1896,0.000296,0.0895646,-1.36169
1897,0.000297,0.0895646,-1.36776
1898,0.000298,0.0895646,-1.37079
1899,0.000299,0.0895646,-1.37535
1900,0.0003,0.0895646,-1.38142
1901,0.000301,0.0895646,-1.38749
1902,0.000302,0.0895646,-1.39356
1903,0.000303,0.0895646,-1.39508
1904,0.000304,0.0895646,-1.40115
1905,0.000305,0.0880466,-1.40875
1906,0.000306,0.0895646,-1.41178
1907,0.000307,0.0895646,-1.41634
1908,0.000308,0.0895646,-1.42089
1909,0.000309,0.0865285,-1.42544
1910,0.00031,0.0865285,-1.43152
1911,0.000311,0.0895646,-1.43455
1912,0.000312,0.0895646,-1.44062
1913,0.000313,0.0895646,-1.44366
1914,0.000314,0.0895646,-1.4467
1915,0.000315,0.0895646,-1.45277
1916,0.000316,0.0895646,-1.45884
1917,0.000317,0.0895646,-1.46188
1918,0.000318,0.0895646,-1.46491
1919,0.000319,0.0895646,-1.46947
1920,0.00032,0.0895646,-1.47402
1921,0.000321,0.0880466,-1.48009
1922,0.000322,0.0865285,-1.48161
1923,0.000323,0.0850105,-1.48465
1924,0.000324,0.0834924,-1.48768
1925,0.000325,0.0880466,-1.49072
1926,0.000326,0.0850105,-1.49376
1927,0.000327,0.0865285,-1.49831
1928,0.000328,0.0834924,-1.50286
1929,0.000329,0.0850105,-1.50286
1930,0.00033,0.0865285,-1.50894
1931,0.000331,0.0865285,-1.50894
1932,0.000332,0.0850105,-1.51349
1933,0.000333,0.0850105,-1.51653
1934,0.000334,0.0850105,-1.52108
1935,0.000335,0.0850105,-1.52108
1936,0.000336,0.0865285,-1.52563
1937,0.000337,0.0850105,-1.52867
1938,0.000338,0.0850105,-1.53171
1939,0.000339,0.0850105,-1.53171
1940,0.00034,0.0850105,-1.53626
1941,0.000341,0.0804563,-1.53626
1942,0.000342,0.0819744,-1.5393
1943,0.000343,0.0819744,-1.5393
1944,0.000344,0.0819744,-1.54385
1945,0.000345,0.0819744,-1.54689
1946,0.000346,0.0819744,-1.54689
1947,0.000347,0.0819744,-1.54689
1948,0.000348,0.0819744,-1.54992
1949,0.000349,0.0819744,-1.55144
1950,0.00035,0.0819744,-1.55448
1951,0.000351,0.0819744,-1.55448
1952,0.000352,0.0819744,-1.55751
1953,0.000353,0.0819744,-1.556
1954,0.000354,0.0819744,-1.55903
1955,0.000355,0.0819744,-1.56055
1956,0.000356,0.0819744,-1.56359
1957,0.000357,0.0819744,-1.56359
1958,0.000358,0.0819744,-1.56662
1959,0.000359,0.0819744,-1.56966
1960,0.00036,0.0819744,-1.56814
1961,0.000361,0.0819744,-1.57118
1962,0.000362,0.0819744,-1.57269
1963,0.000363,0.0819744,-1.57421
1964,0.000364,0.0789383,-1.57421
1965,0.000365,0.0789383,-1.57421
1966,0.000366,0.0789383,-1.57725
1967,0.000367,0.0789383,-1.57573
1968,0.000368,0.0789383,-1.57573
1969,0.000369,0.0789383,-1.57877
1970,0.00037,0.0789383,-1.57725
1971,0.000371,0.0789383,-1.57725
1972,0.000372,0.0789383,-1.57877
1973,0.000373,0.0759022,-1.57877
1974,0.000374,0.0774203,-1.57877
1975,0.000375,0.0743842,-1.57877
1976,0.000376,0.0759022,-1.57877
1977,0.000377,0.0743842,-1.57725
1978,0.000378,0.0774203,-1.57725
1979,0.000379,0.0743842,-1.57725
1980,0.00038,0.0789383,-1.57725
1981,0.000381,0.0759022,-1.57725
1982,0.000382,0.0774203,-1.57725
1983,0.000383,0.0774203,-1.57877
1984,0.000384,0.0759022,-1.57421
1985,0.000385,0.0759022,-1.57877
1986,0.000386,0.0759022,-1.57573
1987,0.000387,0.0759022,-1.57877
1988,0.000388,0.0759022,-1.57725
1989,0.000389,0.0728661,-1.57573
1990,0.00039,0.0743842,-1.57421
1991,0.000391,0.0743842,-1.57573
1992,0.000392,0.0728661,-1.57269
1993,0.000393,0.0728661,-1.57421
1994,0.000394,0.0728661,-1.57118
1995,0.000395,0.0728661,-1.57118
1996,0.000396,0.0667939,-1.57118
1997,0.000397,0.068312,-1.56814
1998,0.000398,0.068312,-1.56662
1999,0.000399,0.0667939,-1.56359
2000,0.0004,0.0728661,-1.56207
2001,0.000401,0.068312,-1.56207
2002,0.000402,0.0667939,-1.55903
2003,0.000403,0.068312,-1.55903
2004,0.000404,0.068312,-1.55751
2005,0.000405,0.068312,-1.556
2006,0.000406,0.0667939,-1.55448
2007,0.000407,0.0713481,-1.55144
2008,0.000408,0.0667939,-1.55144
2009,0.000409,0.0637579,-1.54992
2010,0.00041,0.0652759,-1.54689
2011,0.000411,0.0637579,-1.54537
2012,0.000412,0.0652759,-1.54233
2013,0.000413,0.0637579,-1.54233
2014,0.000414,0.0622398,-1.53778
2015,0.000415,0.0622398,-1.53474
2016,0.000416,0.0622398,-1.53171
2017,0.000417,0.0622398,-1.53019
2018,0.000418,0.0622398,-1.52715
2019,0.000419,0.0622398,-1.52412
2020,0.00042,0.0607218,-1.5226
2021,0.000421,0.0622398,-1.51653
2022,0.000422,0.0622398,-1.51653
2023,0.000423,0.0622398,-1.51349
2024,0.000424,0.0622398,-1.51045
2025,0.000425,0.0607218,-1.50894
2026,0.000426,0.0576857,-1.5059
2027,0.000427,0.0592037,-1.50286
2028,0.000428,0.0576857,-1.49831
2029,0.000429,0.0592037,-1.49376
2030,0.00043,0.0592037,-1.49072
2031,0.000431,0.0546496,-1.48768
2032,0.000432,0.0546496,-1.48465
2033,0.000433,0.0546496,-1.48161
2034,0.000434,0.0546496,-1.47858
2035,0.000435,0.0546496,-1.47554
2036,0.000436,0.0546496,-1.46947
2037,0.000437,0.0561676,-1.46643
2038,0.000438,0.0561676,-1.46188
2039,0.000439,0.0531316,-1.45884
2040,0.00044,0.0546496,-1.4558
2041,0.000441,0.0531316,-1.45429
2042,0.000442,0.0500955,-1.4467
2043,0.000443,0.0516135,-1.44518
2044,0.000444,0.0516135,-1.43911
2045,0.000445,0.0516135,-1.43759
2046,0.000446,0.0485774,-1.43152
2047,0.000447,0.0485774,-1.42544
2048,0.000448,0.0485774,-1.42089
2049,0.000449,0.0485774,-1.41785
2050,0.00045,0.0485774,-1.41178
2051,0.000451,0.0485774,-1.41026
2052,0.000452,0.0485774,-1.40267
2053,0.000453,0.0485774,-1.39812
2054,0.000454,0.0485774,-1.39508
2055,0.000455,0.0440233,-1.39205
2056,0.000456,0.0440233,-1.38446
2057,0.000457,0.0440233,-1.38142
2058,0.000458,0.0440233,-1.37535
2059,0.000459,0.0425052,-1.37079
2060,0.00046,0.0409872,-1.36624
2061,0.000461,0.0394692,-1.36017
2062,0.000462,0.0394692,-1.3541
2063,0.000463,0.0394692,-1.34802
2064,0.000464,0.0409872,-1.34499
2065,0.000465,0.0394692,-1.3374
2066,0.000466,0.0409872,-1.33132
2067,0.000467,0.0409872,-1.32677
2068,0.000468,0.0394692,-1.32373
2069,0.000469,0.0364331,-1.31614
2070,0.00047,0.0364331,-1.31311
2071,0.000471,0.0364331,-1.304
2072,0.000472,0.0364331,-1.30096
2073,0.000473,0.034915,-1.29337
2074,0.000474,0.0318789,-1.28578
2075,0.000475,0.033397,-1.27971
2076,0.000476,0.0318789,-1.27668
2077,0.000477,0.0318789,-1.26909
2078,0.000478,0.033397,-1.26149
2079,0.000479,0.033397,-1.25542
2080,0.00048,0.033397,-1.25087
2081,0.000481,0.033397,-1.2448
2082,0.000482,0.0288428,-1.23721
2083,0.000483,0.0303609,-1.23113
2084,0.000484,0.0303609,-1.22506
2085,0.000485,0.0288428,-1.21747
2086,0.000486,0.0273248,-1.2114
2087,0.000487,0.0242887,-1.20533
2088,0.000488,0.0258068,-1.19925
2089,0.000489,0.0258068,-1.19015
2090,0.00049,0.0258068,-1.18407
2091,0.000491,0.0258068,-1.178
2092,0.000492,0.0258068,-1.17041
2093,0.000493,0.0258068,-1.16434
2094,0.000494,0.0242887,-1.15827
2095,0.000495,0.0242887,-1.1522
2096,0.000496,0.0197346,-1.14309
2097,0.000497,0.0197346,-1.13702
2098,0.000498,0.0197346,-1.12942
2099,0.000499,0.0166985,-1.12183
2100,0.0005,0.0166985,-1.11424
2101,0.000501,0.0197346,-1.10817
2102,0.000502,0.0197346,-1.09755
2103,0.000503,0.0197346,-1.09299
2104,0.000504,0.0166985,-1.08692
2105,0.000505,0.0166985,-1.07629
2106,0.000506,0.0197346,-1.07174
2107,0.000507,0.0151804,-1.06567
2108,0.000508,0.0151804,-1.05656
2109,0.000509,0.0136624,-1.04897
2110,0.00051,0.0136624,-1.03986
2111,0.000511,0.0106263,-1.03227
2112,0.000512,0.0121444,-1.02468
2113,0.000513,0.0121444,-1.01709
2114,0.000514,0.0121444,-1.0095
2115,0.000515,0.0121444,-1.00039
2116,0.000516,0.0121444,-0.994319
2117,0.000517,0.0106263,-0.986729
2118,0.000518,0.0106263,-0.977621
2119,0.000519,0.00759022,-0.97003
2120,0.00052,0.00910827,-0.959404
2121,0.000521,0.00759022,-0.953332
2122,0.000522,0.00759022,-0.945742
2123,0.000523,0.00455413,-0.935115
2124,0.000524,0.00607218,-0.927525
2125,0.000525,0.00607218,-0.918417
2126,0.000526,0.00607218,-0.909309
2127,0.000527,0.00607218,-0.903236
2128,0.000528,0.00455413,-0.894128
2129,0.000529,0.00607218,-0.88502
2130,0.00053,0.00303609,-0.87743
2131,0.000531,0,-0.868321
2132,0.000532,0.00151804,-0.860731
2133,0.000533,0.00303609,-0.850105
2134,0.000534,0,-0.840997
2135,0.000535,0,-0.834924
2136,0.000536,-0.00303609,-0.82278
2137,0.000537,0,-0.816708
2138,0.000538,-0.00303609,-0.8076
2139,0.000539,-0.00303609,-0.796973
2140,0.00054,0,-0.790901
2141,0.000541,0,-0.780275
2142,0.000542,-0.00455413,-0.771167
2143,0.000543,-0.00455413,-0.762058
2144,0.000544,-0.00759022,-0.754468
2145,0.000545,-0.00455413,-0.74536
2146,0.000546,-0.0106263,-0.734733
2147,0.000547,-0.00759022,-0.725625
2148,0.000548,-0.00910827,-0.716517
2149,0.000549,-0.00910827,-0.705891
2150,0.00055,-0.00910827,-0.6983
2151,0.000551,-0.00910827,-0.687674
2152,0.000552,-0.00910827,-0.678566
2153,0.000553,-0.00910827,-0.670976
2154,0.000554,-0.00759022,-0.660349
2155,0.000555,-0.00759022,-0.652759
2156,0.000556,-0.00910827,-0.643651
2157,0.000557,-0.00910827,-0.634543
2158,0.000558,-0.0106263,-0.626952
2159,0.000559,-0.0136624,-0.614808
2160,0.00056,-0.0136624,-0.608736
2161,0.000561,-0.0121444,-0.596591
2162,0.000562,-0.0121444,-0.590519
2163,0.000563,-0.0121444,-0.581411
2164,0.000564,-0.0106263,-0.570785
2165,0.000565,-0.0136624,-0.564712
2166,0.000566,-0.0166985,-0.555604
2167,0.000567,-0.0166985,-0.546496
2168,0.000568,-0.0166985,-0.53587
2169,0.000569,-0.0166985,-0.528279
2170,0.00057,-0.0197346,-0.519171
2171,0.000571,-0.0182165,-0.510063
2172,0.000572,-0.0197346,-0.499437
2173,0.000573,-0.0197346,-0.490328
2174,0.000574,-0.0197346,-0.478184
2175,0.000575,-0.0197346,-0.472112
2176,0.000576,-0.0182165,-0.463004
2177,0.000577,-0.0212526,-0.452377
2178,0.000578,-0.0212526,-0.443269
2179,0.000579,-0.0227707,-0.432643
2180,0.00058,-0.0212526,-0.425052
2181,0.000581,-0.0258068,-0.415944
2182,0.000582,-0.0258068,-0.405318
2183,0.000583,-0.0273248,-0.39621
2184,0.000584,-0.0273248,-0.385583
2185,0.000585,-0.0273248,-0.376475
2186,0.000586,-0.0273248,-0.365849
2187,0.000587,-0.0273248,-0.35674
2188,0.000588,-0.0258068,-0.34915
2189,0.000589,-0.0288428,-0.338524
2190,0.00059,-0.0288428,-0.329416
2191,0.000591,-0.0303609,-0.318789
2192,0.000592,-0.0288428,-0.309681
2193,0.000593,-0.0318789,-0.300573
2194,0.000594,-0.0318789,-0.289946
2195,0.000595,-0.0318789,-0.280838
2196,0.000596,-0.033397,-0.270212
2197,0.000597,-0.033397,-0.259586
2198,0.000598,-0.033397,-0.250477
2199,0.000599,-0.033397,-0.239851
2200,0.0006,-0.033397,-0.229225
2201,0.000601,-0.0364331,-0.220116
2202,0.000602,-0.034915,-0.211008
2203,0.000603,-0.0364331,-0.200382
2204,0.000604,-0.0364331,-0.192792
2205,0.000605,-0.0364331,-0.179129
2206,0.000606,-0.0394692,-0.171539
2207,0.000607,-0.0394692,-0.160913
2208,0.000608,-0.0394692,-0.148768
2209,0.000609,-0.0394692,-0.13966
2210,0.00061,-0.0379511,-0.129034
2211,0.000611,-0.0394692,-0.119925
2212,0.000612,-0.0379511,-0.112335
2213,0.000613,-0.0409872,-0.101709
2214,0.000614,-0.0425052,-0.0910827
2215,0.000615,-0.0440233,-0.0804563
2216,0.000616,-0.0440233,-0.0713481
2217,0.000617,-0.0425052,-0.0607218
2218,0.000618,-0.0455413,-0.0516135
2219,0.000619,-0.0485774,-0.0409872
2220,0.00062,-0.0485774,-0.0318789
2221,0.000621,-0.0485774,-0.0197346
2222,0.000622,-0.0485774,-0.0106263
2223,0.000623,-0.0485774,0
2224,0.000624,-0.0455413,0.00910827
2225,0.000625,-0.0500955,0.0182165
2226,0.000626,-0.0500955,0.0288428
2227,0.000627,-0.0531316,0.0394692
2228,0.000628,-0.0531316,0.0516135
2229,0.000629,-0.0531316,0.0576857
2230,0.00063,-0.0516135,0.06983
2231,0.000631,-0.0561676,0.0789383
2232,0.000632,-0.0561676,0.0895646
2233,0.000633,-0.0561676,0.100191
2234,0.000634,-0.0561676,0.109299
2235,0.000635,-0.0561676,0.122962
2236,0.000636,-0.0561676,0.130552
2237,0.000637,-0.0546496,0.141178
2238,0.000638,-0.0576857,0.150286
2239,0.000639,-0.0576857,0.159395
2240,0.00064,-0.0576857,0.171539
2241,0.000641,-0.0607218,0.180647
2242,0.000642,-0.0576857,0.192792
2243,0.000643,-0.0607218,0.2019
2244,0.000644,-0.0592037,0.211008
2245,0.000645,-0.0637579,0.220116
2246,0.000646,-0.0637579,0.233779
2247,0.000647,-0.0622398,0.241369
2248,0.000648,-0.0637579,0.255031
2249,0.000649,-0.0637579,0.262622
2250,0.00065,-0.0637579,0.276284
2251,0.000651,-0.0622398,0.285392
2252,0.000652,-0.0622398,0.294501
2253,0.000653,-0.0637579,0.305127
2254,0.000654,-0.0622398,0.314235
2255,0.000655,-0.0667939,0.324861
2256,0.000656,-0.0667939,0.33397
2257,0.000657,-0.0667939,0.343078
2258,0.000658,-0.0637579,0.353704
2259,0.000659,-0.0652759,0.362813
2260,0.00066,-0.068312,0.374957
2261,0.000661,-0.06983,0.384065
2262,0.000662,-0.06983,0.394692
2263,0.000663,-0.06983,0.406836
2264,0.000664,-0.06983,0.415944
2265,0.000665,-0.068312,0.425052
2266,0.000666,-0.068312,0.437197
2267,0.000667,-0.06983,0.443269
2268,0.000668,-0.06983,0.455413
2269,0.000669,-0.068312,0.463004
2270,0.00067,-0.06983,0.47363
2271,0.000671,-0.0743842,0.484256
2272,0.000672,-0.0743842,0.493364
2273,0.000673,-0.0743842,0.503991
2274,0.000674,-0.0743842,0.514617
2275,0.000675,-0.0728661,0.523725
2276,0.000676,-0.0774203,0.534352
2277,0.000677,-0.0774203,0.541942
2278,0.000678,-0.0789383,0.555604
2279,0.000679,-0.0759022,0.564712
2280,0.00068,-0.0774203,0.575339
2281,0.000681,-0.0774203,0.584447
2282,0.000682,-0.0774203,0.593555
2283,0.000683,-0.0789383,0.604182
2284,0.000684,-0.0759022,0.61329
2285,0.000685,-0.0774203,0.623916
2286,0.000686,-0.0774203,0.631506
2287,0.000687,-0.0774203,0.640615
2288,0.000688,-0.0804563,0.649723
2289,0.000689,-0.0804563,0.658831
2290,0.00069,-0.0804563,0.669458
2291,0.000691,-0.0804563,0.680084
2292,0.000692,-0.0804563,0.687674
2293,0.000693,-0.0804563,0.6983
2294,0.000694,-0.0834924,0.707409
2295,0.000695,-0.0834924,0.718035
2296,0.000696,-0.0834924,0.727143
2297,0.000697,-0.0819744,0.73777
2298,0.000698,-0.0850105,0.746878
2299,0.000699,-0.0819744,0.754468
2300,0.0007,-0.0850105,0.765094
2301,0.000701,-0.0819744,0.775721
2302,0.000702,-0.0834924,0.783311
2303,0.000703,-0.0834924,0.792419
2304,0.000704,-0.0834924,0.803045
2305,0.000705,-0.0819744,0.810636
2306,0.000706,-0.0850105,0.819744
2307,0.000707,-0.0850105,0.825816
2308,0.000708,-0.0880466,0.836442
2309,0.000709,-0.0865285,0.845551
2310,0.00071,-0.0880466,0.856177
2311,0.000711,-0.0865285,0.865285
2312,0.000712,-0.0865285,0.875912
2313,0.000713,-0.0865285,0.881984
2314,0.000714,-0.0865285,0.891092
2315,0.000715,-0.0910827,0.901718
2316,0.000716,-0.0910827,0.910827
2317,0.000717,-0.0910827,0.919935
2318,0.000718,-0.0910827,0.929043
2319,0.000719,-0.0910827,0.936633
2320,0.00072,-0.0910827,0.94726
2321,0.000721,-0.0910827,0.95485
2322,0.000722,-0.0880466,0.963958
2323,0.000723,-0.0880466,0.973066
2324,0.000724,-0.0910827,0.980657
2325,0.000725,-0.0895646,0.991283
2326,0.000726,-0.0910827,0.998873
2327,0.000727,-0.0910827,1.00646
2328,0.000728,-0.0910827,1.01405
2329,0.000729,-0.0910827,1.02316
2330,0.00073,-0.0895646,1.03075
2331,0.000731,-0.0895646,1.03986
2332,0.000732,-0.0926007,1.04745
2333,0.000733,-0.0926007,1.05504
2334,0.000734,-0.0926007,1.06567
2335,0.000735,-0.0926007,1.07022
2336,0.000736,-0.0926007,1.08237
2337,0.000737,-0.0956368,1.08692
2338,0.000738,-0.0910827,1.09603
2339,0.000739,-0.0926007,1.10514
2340,0.00074,-0.0926007,1.11121
2341,0.000741,-0.0926007,1.11728
2342,0.000742,-0.0956368,1.12791
2343,0.000743,-0.0956368,1.1355
2344,0.000744,-0.0986729,1.14157
2345,0.000745,-0.0971548,1.15371
2346,0.000746,-0.0971548,1.15979
2347,0.000747,-0.0971548,1.16738
2348,0.000748,-0.0971548,1.17648
2349,0.000749,-0.0971548,1.18256
2350,0.00075,-0.0971548,1.19015
2351,0.000751,-0.0971548,1.19925
2352,0.000752,-0.0971548,1.20533
2353,0.000753,-0.0971548,1.21292
2354,0.000754,-0.0971548,1.22051
2355,0.000755,-0.0971548,1.22962
2356,0.000756,-0.0971548,1.23417
2357,0.000757,-0.0971548,1.2448
2358,0.000758,-0.0971548,1.24935
2359,0.000759,-0.0971548,1.25542
2360,0.00076,-0.0971548,1.26149
2361,0.000761,-0.0971548,1.26909
2362,0.000762,-0.0971548,1.27516
2363,0.000763,-0.0971548,1.28275
2364,0.000764,-0.0971548,1.28882
2365,0.000765,-0.0971548,1.29793
2366,0.000766,-0.0971548,1.30096
2367,0.000767,-0.0971548,1.31159
2368,0.000768,-0.0971548,1.31614
2369,0.000769,-0.0971548,1.32222
2370,0.00077,-0.0971548,1.32677
2371,0.000771,-0.0971548,1.33436
2372,0.000772,-0.0971548,1.34043
2373,0.000773,-0.0971548,1.34651
2374,0.000774,-0.100191,1.35258
2375,0.000775,-0.100191,1.36017
2376,0.000776,-0.100191,1.36624
2377,0.000777,-0.100191,1.37231
2378,0.000778,-0.100191,1.3799
2379,0.000779,-0.100191,1.38597
2380,0.00078,-0.100191,1.39205
2381,0.000781,-0.100191,1.3966
2382,0.000782,-0.100191,1.40419
2383,0.000783,-0.100191,1.41026
2384,0.000784,-0.100191,1.41482
2385,0.000785,-0.100191,1.42089
2386,0.000786,-0.100191,1.42696
2387,0.000787,-0.100191,1.43303
2388,0.000788,-0.100191,1.43607
2389,0.000789,-0.100191,1.44366
2390,0.00079,-0.100191,1.44973
2391,0.000791,-0.100191,1.4558
2392,0.000792,-0.100191,1.45884
2393,0.000793,-0.100191,1.46491
2394,0.000794,-0.100191,1.46947
2395,0.000795,-0.100191,1.47706
2396,0.000796,-0.100191,1.48161
2397,0.000797,-0.100191,1.48768
2398,0.000798,-0.100191,1.49072
2399,0.000799,-0.100191,1.49831
2400,0.0008,-0.100191,1.50135
2401,0.000801,-0.100191,1.5059
2402,0.000802,-0.100191,1.51045
2403,0.000803,-0.100191,1.51501
2404,0.000804,-0.100191,1.52108
2405,0.000805,-0.0986729,1.52412
2406,0.000806,-0.103227,1.53019
2407,0.000807,-0.0986729,1.53474
2408,0.000808,-0.100191,1.54081
2409,0.000809,-0.100191,1.54385
2410,0.00081,-0.100191,1.54689
2411,0.000811,-0.100191,1.55296
2412,0.000812,-0.100191,1.55448
2413,0.000813,-0.100191,1.56055
2414,0.000814,-0.100191,1.5651
2415,0.000815,-0.100191,1.56814
2416,0.000816,-0.100191,1.57421
2417,0.000817,-0.100191,1.57725
2418,0.000818,-0.100191,1.57877
2419,0.000819,-0.100191,1.58484
2420,0.00082,-0.100191,1.58939
2421,0.000821,-0.100191,1.59395
2422,0.000822,-0.0986729,1.59698
2423,0.000823,-0.0971548,1.60002
2424,0.000824,-0.0971548,1.60154
2425,0.000825,-0.0971548,1.60457
2426,0.000826,-0.0971548,1.60761
2427,0.000827,-0.0971548,1.61216
2428,0.000828,-0.0971548,1.6152
2429,0.000829,-0.0971548,1.61824
2430,0.00083,-0.0971548,1.62127
2431,0.000831,-0.0971548,1.62127
2432,0.000832,-0.0971548,1.62583
2433,0.000833,-0.0971548,1.62734
2434,0.000834,-0.0971548,1.63038
2435,0.000835,-0.0971548,1.63493
2436,0.000836,-0.0971548,1.63797
2437,0.000837,-0.0971548,1.63949
2438,0.000838,-0.0956368,1.64252
2439,0.000839,-0.0971548,1.64556
2440,0.00084,-0.0971548,1.64556
2441,0.000841,-0.0971548,1.6486
2442,0.000842,-0.0971548,1.65163
2443,0.000843,-0.0971548,1.65619
2444,0.000844,-0.0971548,1.65619
2445,0.000845,-0.0971548,1.65922
2446,0.000846,-0.0971548,1.66226
2447,0.000847,-0.0971548,1.66378
2448,0.000848,-0.0971548,1.66681
2449,0.000849,-0.0971548,1.66833
2450,0.00085,-0.0971548,1.67137
2451,0.000851,-0.0971548,1.67288
2452,0.000852,-0.0971548,1.6744
2453,0.000853,-0.0971548,1.67896
2454,0.000854,-0.0926007,1.67896
2455,0.000855,-0.0926007,1.68199
2456,0.000856,-0.0926007,1.68199
2457,0.000857,-0.0926007,1.68351
2458,0.000858,-0.0926007,1.68655
2459,0.000859,-0.0926007,1.68503
2460,0.00086,-0.0926007,1.68807
2461,0.000861,-0.0926007,1.68958
2462,0.000862,-0.0926007,1.68958
2463,0.000863,-0.0926007,1.6911
2464,0.000864,-0.0895646,1.6911
2465,0.000865,-0.0895646,1.6911
2466,0.000866,-0.0895646,1.69262
2467,0.000867,-0.0895646,1.69414
2468,0.000868,-0.0895646,1.69414
2469,0.000869,-0.0895646,1.69414
2470,0.00087,-0.0895646,1.69414
2471,0.000871,-0.0895646,1.69566
2472,0.000872,-0.0895646,1.69566
2473,0.000873,-0.0880466,1.69566
2474,0.000874,-0.0910827,1.69566
2475,0.000875,-0.0895646,1.69566
2476,0.000876,-0.0880466,1.69869
2477,0.000877,-0.0910827,1.69869
2478,0.000878,-0.0910827,1.69869
2479,0.000879,-0.0895646,1.69869
2480,0.00088,-0.0910827,1.69869
2481,0.000881,-0.0880466,1.69869
2482,0.000882,-0.0850105,1.70173
2483,0.000883,-0.0850105,1.70173
2484,0.000884,-0.0880466,1.70173
2485,0.000885,-0.0850105,1.69717
2486,0.000886,-0.0865285,1.69869
2487,0.000887,-0.0865285,1.69869
2488,0.000888,-0.0865285,1.69717
2489,0.000889,-0.0850105,1.69717
2490,0.00089,-0.0819744,1.69717
2491,0.000891,-0.0834924,1.69414
2492,0.000892,-0.0834924,1.69414
2493,0.000893,-0.0819744,1.6911
2494,0.000894,-0.0850105,1.69262
2495,0.000895,-0.0834924,1.6911
2496,0.000896,-0.0834924,1.68807
2497,0.000897,-0.0834924,1.68958
2498,0.000898,-0.0834924,1.68655
2499,0.000899,-0.0834924,1.68807
2500,0.0009,-0.0834924,1.68503
2501,0.000901,-0.0834924,1.68655
2502,0.000902,-0.0804563,1.68503
2503,0.000903,-0.0804563,1.68351
2504,0.000904,-0.0804563,1.68047
2505,0.000905,-0.0804563,1.67896
2506,0.000906,-0.0804563,1.67896
2507,0.000907,-0.0804563,1.67592
2508,0.000908,-0.0774203,1.67288
2509,0.000909,-0.0743842,1.67137
2510,0.00091,-0.0743842,1.66985
2511,0.000911,-0.0774203,1.66681
2512,0.000912,-0.0774203,1.66529
2513,0.000913,-0.0743842,1.66226
2514,0.000914,-0.0759022,1.66074
2515,0.000915,-0.0774203,1.6577
2516,0.000916,-0.0743842,1.65619
2517,0.000917,-0.0774203,1.65315
2518,0.000918,-0.0743842,1.65011
2519,0.000919,-0.0759022,1.6486
2520,0.00092,-0.0728661,1.64556
2521,0.000921,-0.06983,1.64404
2522,0.000922,-0.0743842,1.64101
2523,0.000923,-0.0743842,1.63797
2524,0.000924,-0.0743842,1.63645
2525,0.000925,-0.06983,1.63342
2526,0.000926,-0.068312,1.62886
2527,0.000927,-0.0667939,1.62583
2528,0.000928,-0.068312,1.61975
2529,0.000929,-0.068312,1.61824
2530,0.00093,-0.068312,1.6152
2531,0.000931,-0.068312,1.61216
2532,0.000932,-0.068312,1.60761
2533,0.000933,-0.068312,1.60457
2534,0.000934,-0.068312,1.60154
2535,0.000935,-0.068312,1.5985
2536,0.000936,-0.0652759,1.59546
2537,0.000937,-0.0652759,1.59243
2538,0.000938,-0.0637579,1.58787
2539,0.000939,-0.0667939,1.58332
2540,0.00094,-0.0667939,1.58028
2541,0.000941,-0.0622398,1.57421
2542,0.000942,-0.0637579,1.57118
2543,0.000943,-0.0622398,1.56814
2544,0.000944,-0.0622398,1.5651
2545,0.000945,-0.0622398,1.55751
2546,0.000946,-0.0622398,1.556
2547,0.000947,-0.0622398,1.54992
2548,0.000948,-0.0622398,1.54841
2549,0.000949,-0.0622398,1.54385
2550,0.00095,-0.0622398,1.53626
2551,0.000951,-0.0576857,1.53474
2552,0.000952,-0.0592037,1.53019
2553,0.000953,-0.0592037,1.52412
2554,0.000954,-0.0576857,1.52108
2555,0.000955,-0.0576857,1.51501
2556,0.000956,-0.0561676,1.51045
2557,0.000957,-0.0561676,1.5059
2558,0.000958,-0.0561676,1.49983
2559,0.000959,-0.0561676,1.49679
2560,0.00096,-0.0561676,1.4892
2561,0.000961,-0.0561676,1.48617
2562,0.000962,-0.0546496,1.48009
2563,0.000963,-0.0531316,1.47706
2564,0.000964,-0.0561676,1.46947
2565,0.000965,-0.0531316,1.46491
2566,0.000966,-0.0500955,1.46036
2567,0.000967,-0.0516135,1.45429
2568,0.000968,-0.0516135,1.44973
2569,0.000969,-0.0485774,1.44214
2570,0.00097,-0.0485774,1.43759
2571,0.000971,-0.0485774,1.43152
2572,0.000972,-0.0455413,1.42696
2573,0.000973,-0.0455413,1.41937
2574,0.000974,-0.0485774,1.41178
2575,0.000975,-0.0485774,1.40875
2576,0.000976,-0.0485774,1.40115
2577,0.000977,-0.0455413,1.39508
2578,0.000978,-0.0425052,1.39205
2579,0.000979,-0.0425052,1.38597
2580,0.00098,-0.0425052,1.37687
2581,0.000981,-0.0425052,1.37231
2582,0.000982,-0.0409872,1.36776
2583,0.000983,-0.0409872,1.35865
2584,0.000984,-0.0379511,1.35258
2585,0.000985,-0.0394692,1.34651
2586,0.000986,-0.0379511,1.34043
2587,0.000987,-0.0394692,1.33132
2588,0.000988,-0.0394692,1.32525
2589,0.000989,-0.0394692,1.31918
2590,0.00099,-0.0379511,1.31311
2591,0.000991,-0.034915,1.30552
2592,0.000992,-0.034915,1.29945
2593,0.000993,-0.0364331,1.29186
2594,0.000994,-0.0364331,1.28427
2595,0.000995,-0.0318789,1.27971
2596,0.000996,-0.034915,1.2706
2597,0.000997,-0.034915,1.26301
2598,0.000998,-0.034915,1.25542
2599,0.000999,-0.034915,1.24935
2600,0.001,-0.033397,1.24328
2601,0.001001,-0.033397,1.23721
2602,0.001002,-0.033397,1.2281
2603,0.001003,-0.0288428,1.22354
2604,0.001004,-0.0318789,1.21292
2605,0.001005,-0.0288428,1.20685
2606,0.001006,-0.0318789,1.19925
2607,0.001007,-0.0258068,1.19166
2608,0.001008,-0.0288428,1.18407
2609,0.001009,-0.0273248,1.17648
2610,0.00101,-0.0273248,1.16889
2611,0.001011,-0.0273248,1.1613
2612,0.001012,-0.0273248,1.15371
2613,0.001013,-0.0273248,1.14612
2614,0.001014,-0.0273248,1.13702
2615,0.001015,-0.0212526,1.13094
2616,0.001016,-0.0227707,1.12335
2617,0.001017,-0.0227707,1.11576
2618,0.001018,-0.0197346,1.10817
2619,0.001019,-0.0166985,1.09755
2620,0.00102,-0.0197346,1.09147
2621,0.001021,-0.0197346,1.08237
2622,0.001022,-0.0197346,1.07326
2623,0.001023,-0.0197346,1.06567
2624,0.001024,-0.0197346,1.05959
2625,0.001025,-0.0197346,1.05049
2626,0.001026,-0.0182165,1.0429
2627,0.001027,-0.0151804,1.03227
2628,0.001028,-0.0151804,1.02468
2629,0.001029,-0.0151804,1.01861
2630,0.00103,-0.0136624,1.00798
2631,0.001031,-0.0136624,0.998873
2632,0.001032,-0.0136624,0.991283
2633,0.001033,-0.0136624,0.980657
2634,0.001034,-0.0136624,0.971548
2635,0.001035,-0.0136624,0.963958
2636,0.001036,-0.0136624,0.95485
2637,0.001037,-0.0136624,0.94726
2638,0.001038,-0.00910827,0.936633
2639,0.001039,-0.0106263,0.930561
2640,0.00104,-0.00759022,0.919935
2641,0.001041,-0.00759022,0.912345
2642,0.001042,-0.0106263,0.903236
2643,0.001043,-0.0106263,0.894128
2644,0.001044,-0.0106263,0.886538
2645,0.001045,-0.00910827,0.87743
2646,0.001046,-0.00910827,0.868321
2647,0.001047,-0.0106263,0.860731
2648,0.001048,-0.0106263,0.853141
2649,0.001049,-0.00910827,0.845551
2650,0.00105,-0.00607218,0.836442
2651,0.001051,-0.00759022,0.825816
2652,0.001052,-0.00607218,0.818226
2653,0.001053,-0.00910827,0.810636
2654,0.001054,-0.00303609,0.800009
2655,0.001055,-0.00455413,0.792419
2656,0.001056,-0.00455413,0.783311
2657,0.001057,-0.00455413,0.775721
2658,0.001058,-0.00455413,0.766612
2659,0.001059,-0.00455413,0.755986
2660,0.00106,-0.00303609,0.748396
2661,0.001061,0,0.740806
2662,0.001062,0,0.730179
2663,0.001063,0.00303609,0.722589
2664,0.001064,0.00303609,0.713481
2665,0.001065,0.00303609,0.704373
2666,0.001066,0.00607218,0.695264
2667,0.001067,0.00607218,0.684638
2668,0.001068,0.00607218,0.67553
2669,0.001069,0.00607218,0.664903
2670,0.00107,0.00607218,0.657313
2671,0.001071,0.00607218,0.648205
2672,0.001072,0.00455413,0.639097
2673,0.001073,0.00759022,0.629988
2674,0.001074,0.00759022,0.622398
2675,0.001075,0.00910827,0.611772
2676,0.001076,0.00759022,0.602664
2677,0.001077,0.0106263,0.592037
2678,0.001078,0.0106263,0.582929
2679,0.001079,0.0121444,0.572303
2680,0.00108,0.0121444,0.563194
2681,0.001081,0.0121444,0.554086
2682,0.001082,0.0121444,0.54346
2683,0.001083,0.0106263,0.532834
2684,0.001084,0.0121444,0.525243
2685,0.001085,0.0151804,0.516135
2686,0.001086,0.0136624,0.507027
2687,0.001087,0.0151804,0.4964
2688,0.001088,0.0136624,0.487292
2689,0.001089,0.0166985,0.476666
2690,0.00109,0.0197346,0.467558
2691,0.001091,0.0197346,0.455413
2692,0.001092,0.0197346,0.446305
2693,0.001093,0.0197346,0.437197
2694,0.001094,0.0197346,0.42657
2695,0.001095,0.0197346,0.417462
2696,0.001096,0.0197346,0.406836
2697,0.001097,0.0197346,0.397728
2698,0.001098,0.0197346,0.387101
2699,0.001099,0.0242887,0.377993
2700,0.0011,0.0242887,0.368885
2701,0.001101,0.0242887,0.358258
2702,0.001102,0.0273248,0.347632
2703,0.001103,0.0258068,0.337006
2704,0.001104,0.0258068,0.327898
2705,0.001105,0.0273248,0.317271
2706,0.001106,0.0273248,0.308163
2707,0.001107,0.0273248,0.299055
2708,0.001108,0.0273248,0.288428
2709,0.001109,0.0273248,0.27932
2710,0.00111,0.0288428,0.268694
2711,0.001111,0.0288428,0.259586
2712,0.001112,0.0303609,0.248959
2713,0.001113,0.0288428,0.236815
2714,0.001114,0.0318789,0.227707
2715,0.001115,0.0318789,0.218598
2716,0.001116,0.033397,0.204936
2717,0.001117,0.033397,0.197346
2718,0.001118,0.033397,0.186719
2719,0.001119,0.033397,0.176093
2720,0.00112,0.033397,0.165467
2721,0.001121,0.033397,0.156359
2722,0.001122,0.033397,0.14725
2723,0.001123,0.0364331,0.135106
2724,0.001124,0.0379511,0.125998
2725,0.001125,0.0379511,0.116889
2726,0.001126,0.0364331,0.106263
2727,0.001127,0.0394692,0.0956368
2728,0.001128,0.0409872,0.0865285
2729,0.001129,0.0409872,0.0743842
2730,0.00113,0.0409872,0.0637579
2731,0.001131,0.0409872,0.0531316
2732,0.001132,0.0409872,0.0425052
2733,0.001133,0.0409872,0.033397
2734,0.001134,0.0409872,0.0242887
2735,0.001135,0.0409872,0.0136624
2736,0.001136,0.0440233,0.00455413
2737,0.001137,0.0440233,-0.00759022
2738,0.001138,0.0440233,-0.0166985
2739,0.001139,0.0425052,-0.0288428
2740,0.00114,0.0440233,-0.0379511
2741,0.001141,0.0485774,-0.0485774
2742,0.001142,0.0485774,-0.0592037
2743,0.001143,0.0485774,-0.068312
2744,0.001144,0.0440233,-0.0789383
2745,0.001145,0.0485774,-0.0880466
2746,0.001146,0.0485774,-0.101709
2747,0.001147,0.0485774,-0.109299
2748,0.001148,0.0485774,-0.119925
2749,0.001149,0.0470594,-0.129034
2750,0.00115,0.0516135,-0.13966
2751,0.001151,0.0516135,-0.148768
2752,0.001152,0.0516135,-0.160913
2753,0.001153,0.0516135,-0.171539
2754,0.001154,0.0500955,-0.179129
2755,0.001155,0.0546496,-0.192792
2756,0.001156,0.0546496,-0.200382
2757,0.001157,0.0546496,-0.214044
2758,0.001158,0.0546496,-0.223153
2759,0.001159,0.0546496,-0.233779
2760,0.00116,0.0546496,-0.242887
2761,0.001161,0.0546496,-0.251995
2762,0.001162,0.0546496,-0.262622
2763,0.001163,0.0546496,-0.27173
2764,0.001164,0.0546496,-0.282356
2765,0.001165,0.0576857,-0.291465
2766,0.001166,0.0576857,-0.302091
2767,0.001167,0.0576857,-0.312717
2768,0.001168,0.0576857,-0.321825
2769,0.001169,0.0561676,-0.332452
2770,0.00117,0.0607218,-0.340042
2771,0.001171,0.0607218,-0.353704
2772,0.001172,0.0607218,-0.361295
2773,0.001173,0.0607218,-0.371921
2774,0.001174,0.0607218,-0.381029
2775,0.001175,0.0607218,-0.394692
2776,0.001176,0.0607218,-0.402282
2777,0.001177,0.0622398,-0.41139
2778,0.001178,0.0622398,-0.423534
2779,0.001179,0.0622398,-0.429607
2780,0.00118,0.0622398,-0.440233
2781,0.001181,0.0607218,-0.449341
2782,0.001182,0.0652759,-0.458449
2783,0.001183,0.0652759,-0.469076
2784,0.001184,0.0652759,-0.478184
2785,0.001185,0.0652759,-0.48881
2786,0.001186,0.0652759,-0.497919
2787,0.001187,0.0637579,-0.508545
2788,0.001188,0.0713481,-0.517653
2789,0.001189,0.0713481,-0.526761
2790,0.00119,0.0713481,-0.538906
2791,0.001191,0.068312,-0.548014
2792,0.001192,0.0713481,-0.55864
2793,0.001193,0.068312,-0.567749
2794,0.001194,0.0713481,-0.578375
2795,0.001195,0.0713481,-0.587483
2796,0.001196,0.0713481,-0.593555
2797,0.001197,0.0713481,-0.6057
2798,0.001198,0.0713481,-0.61329
2799,0.001199,0.0713481,-0.623916
2800,0.0012,0.0713481,-0.631506
2801,0.001201,0.0743842,-0.640615
2802,0.001202,0.0743842,-0.651241
2803,0.001203,0.0743842,-0.660349
2804,0.001204,0.0743842,-0.669458
2805,0.001205,0.0743842,-0.678566
2806,0.001206,0.0728661,-0.687674
2807,0.001207,0.0759022,-0.6983
2808,0.001208,0.0759022,-0.705891
2809,0.001209,0.0759022,-0.718035
2810,0.00121,0.0774203,-0.724107
2811,0.001211,0.0774203,-0.733215
2812,0.001212,0.0774203,-0.743842
2813,0.001213,0.0774203,-0.751432
2814,0.001214,0.0774203,-0.762058
2815,0.001215,0.0774203,-0.771167
2816,0.001216,0.0774203,-0.780275
2817,0.001217,0.0774203,-0.787865
2818,0.001218,0.0774203,-0.796973
2819,0.001219,0.0774203,-0.8076
2820,0.00122,0.0774203,-0.813672
2821,0.001221,0.0743842,-0.821262
2822,0.001222,0.0774203,-0.83037
2823,0.001223,0.0804563,-0.83796
2824,0.001224,0.0774203,-0.848587
2825,0.001225,0.0774203,-0.856177
2826,0.001226,0.0804563,-0.865285
2827,0.001227,0.0804563,-0.871357
2828,0.001228,0.0804563,-0.881984
2829,0.001229,0.0804563,-0.891092
2830,0.00123,0.0774203,-0.898682
2831,0.001231,0.0774203,-0.90779
2832,0.001232,0.0834924,-0.913863
2833,0.001233,0.0819744,-0.924489
2834,0.001234,0.0850105,-0.932079
2835,0.001235,0.0804563,-0.941187
2836,0.001236,0.0819744,-0.950296
2837,0.001237,0.0819744,-0.956368
2838,0.001238,0.0819744,-0.965476
2839,0.001239,0.0804563,-0.976102
2840,0.00124,0.0834924,-0.982175
2841,0.001241,0.0834924,-0.991283
2842,0.001242,0.0819744,-0.998873
2843,0.001243,0.0819744,-1.00495
2844,0.001244,0.0819744,-1.01557
2845,0.001245,0.0819744,-1.02316
2846,0.001246,0.0819744,-1.02772
2847,0.001247,0.0819744,-1.03834
2848,0.001248,0.0819744,-1.04441
2849,0.001249,0.0819744,-1.052
2850,0.00125,0.0819744,-1.05959
2851,0.001251,0.0819744,-1.06567
2852,0.001252,0.0819744,-1.07174
2853,0.001253,0.0819744,-1.07933
2854,0.001254,0.0804563,-1.08692
2855,0.001255,0.0850105,-1.09299
2856,0.001256,0.0850105,-1.10058
2857,0.001257,0.0834924,-1.10817
2858,0.001258,0.0850105,-1.11424
2859,0.001259,0.0865285,-1.12032
2860,0.00126,0.0865285,-1.13094
2861,0.001261,0.0834924,-1.13702
2862,0.001262,0.0850105,-1.14309
2863,0.001263,0.0834924,-1.1522
2864,0.001264,0.0865285,-1.15827
2865,0.001265,0.0865285,-1.16434
2866,0.001266,0.0850105,-1.17041
2867,0.001267,0.0850105,-1.18104
2868,0.001268,0.0850105,-1.18407
2869,0.001269,0.0850105,-1.19015
2870,0.00127,0.0850105,-1.19774
2871,0.001271,0.0850105,-1.20381
2872,0.001272,0.0850105,-1.20988
2873,0.001273,0.0850105,-1.21595
2874,0.001274,0.0880466,-1.22203
2875,0.001275,0.0880466,-1.23113
2876,0.001276,0.0895646,-1.23569
2877,0.001277,0.0880466,-1.24176
2878,0.001278,0.0880466,-1.24935
2879,0.001279,0.0910827,-1.25542
2880,0.00128,0.0880466,-1.26149
2881,0.001281,0.0895646,-1.26909
2882,0.001282,0.0895646,-1.27516
2883,0.001283,0.0895646,-1.28123
2884,0.001284,0.0865285,-1.29034
2885,0.001285,0.0880466,-1.29337
2886,0.001286,0.0880466,-1.29945
2887,0.001287,0.0880466,-1.30552
2888,0.001288,0.0895646,-1.31311
2889,0.001289,0.0880466,-1.31766
2890,0.00129,0.0880466,-1.32525
2891,0.001291,0.0880466,-1.32829
2892,0.001292,0.0865285,-1.3374
2893,0.001293,0.0895646,-1.34043
2894,0.001294,0.0895646,-1.34802
2895,0.001295,0.0895646,-1.35258
2896,0.001296,0.0895646,-1.35865
2897,0.001297,0.0895646,-1.36169
2898,0.001298,0.0865285,-1.36776
2899,0.001299,0.0895646,-1.37383
2900,0.0013,0.0895646,-1.37838
2901,0.001301,0.0895646,-1.38446
2902,0.001302,0.0895646,-1.38901
2903,0.001303,0.0895646,-1.39356
2904,0.001304,0.0895646,-1.3966
2905,0.001305,0.0895646,-1.40571
2906,0.001306,0.0895646,-1.40875
2907,0.001307,0.0880466,-1.4133
2908,0.001308,0.0880466,-1.41937
2909,0.001309,0.0865285,-1.42241
2910,0.00131,0.0895646,-1.42848
2911,0.001311,0.0895646,-1.43303
2912,0.001312,0.0895646,-1.43607
2913,0.001313,0.0895646,-1.44214
2914,0.001314,0.0895646,-1.44518
2915,0.001315,0.0895646,-1.45125
2916,0.001316,0.0895646,-1.45429
2917,0.001317,0.0895646,-1.46036
2918,0.001318,0.0895646,-1.46339
2919,0.001319,0.0895646,-1.46643
2920,0.00132,0.0880466,-1.47098
2921,0.001321,0.0880466,-1.47554
2922,0.001322,0.0850105,-1.47858
2923,0.001323,0.0850105,-1.48161
2924,0.001324,0.0850105,-1.48465
2925,0.001325,0.0865285,-1.48768
2926,0.001326,0.0850105,-1.49072
2927,0.001327,0.0850105,-1.49679
2928,0.001328,0.0850105,-1.49831
2929,0.001329,0.0850105,-1.49983
2930,0.00133,0.0850105,-1.50286
2931,0.001331,0.0850105,-1.5059
2932,0.001332,0.0850105,-1.51045
2933,0.001333,0.0850105,-1.51045
2934,0.001334,0.0850105,-1.51501
2935,0.001335,0.0865285,-1.51956
2936,0.001336,0.0865285,-1.5226
2937,0.001337,0.0850105,-1.52563
2938,0.001338,0.0850105,-1.52563
2939,0.001339,0.0850105,-1.53019
2940,0.00134,0.0850105,-1.53322
2941,0.001341,0.0819744,-1.53474
2942,0.001342,0.0819744,-1.53474
2943,0.001343,0.0819744,-1.53778
2944,0.001344,0.0819744,-1.5393
2945,0.001345,0.0819744,-1.5393
2946,0.001346,0.0819744,-1.54385
2947,0.001347,0.0819744,-1.54537
2948,0.001348,0.0819744,-1.54689
2949,0.001349,0.0819744,-1.54841
2950,0.00135,0.0819744,-1.54992
2951,0.001351,0.0819744,-1.55144
2952,0.001352,0.0819744,-1.55448
2953,0.001353,0.0819744,-1.55448
2954,0.001354,0.0819744,-1.556
2955,0.001355,0.0819744,-1.55751
2956,0.001356,0.0819744,-1.55903
2957,0.001357,0.0819744,-1.56055
2958,0.001358,0.0819744,-1.56207
2959,0.001359,0.0819744,-1.56662
2960,0.00136,0.0819744,-1.56359
2961,0.001361,0.0819744,-1.56814
2962,0.001362,0.0819744,-1.56966
2963,0.001363,0.0819744,-1.56966
2964,0.001364,0.0789383,-1.57269
2965,0.001365,0.0789383,-1.57269
2966,0.001366,0.0789383,-1.57269
2967,0.001367,0.0789383,-1.57269
2968,0.001368,0.0789383,-1.57269
2969,0.001369,0.0789383,-1.57573
2970,0.00137,0.0789383,-1.57421
2971,0.001371,0.0789383,-1.57573
2972,0.001372,0.0789383,-1.57573
2973,0.001373,0.0759022,-1.57573
2974,0.001374,0.0759022,-1.57573
2975,0.001375,0.0759022,-1.57573
2976,0.001376,0.0759022,-1.57573
2977,0.001377,0.0774203,-1.57573
2978,0.001378,0.0743842,-1.57421
2979,0.001379,0.0759022,-1.57421
2980,0.00138,0.0759022,-1.57573
2981,0.001381,0.0759022,-1.57421
2982,0.001382,0.0759022,-1.57421
2983,0.001383,0.0759022,-1.57421
2984,0.001384,0.0759022,-1.57421
2985,0.001385,0.0759022,-1.57421
2986,0.001386,0.0759022,-1.57421
2987,0.001387,0.0774203,-1.57421
2988,0.001388,0.0759022,-1.57269
2989,0.001389,0.0713481,-1.57421
2990,0.00139,0.0728661,-1.57269
2991,0.001391,0.0728661,-1.57269
2992,0.001392,0.0728661,-1.57118
2993,0.001393,0.0743842,-1.56966
2994,0.001394,0.0728661,-1.56966
2995,0.001395,0.0728661,-1.56966
2996,0.001396,0.0667939,-1.56814
2997,0.001397,0.068312,-1.56814
2998,0.001398,0.068312,-1.56359
2999,0.001399,0.068312,-1.56055
3000,0.0014,0.068312,-1.56055
3001,0.001401,0.0713481,-1.55903
3002,0.001402,0.0667939,-1.55751
3003,0.001403,0.068312,-1.55751
3004,0.001404,0.068312,-1.55448
3005,0.001405,0.068312,-1.55296
3006,0.001406,0.068312,-1.55144
3007,0.001407,0.068312,-1.55144
3008,0.001408,0.068312,-1.54992
3009,0.001409,0.0637579,-1.54689
3010,0.00141,0.0652759,-1.54537
3011,0.001411,0.0652759,-1.54233
3012,0.001412,0.0637579,-1.54233
3013,0.001413,0.0637579,-1.53778
3014,0.001414,0.0622398,-1.53474
3015,0.001415,0.0622398,-1.53322
3016,0.001416,0.0622398,-1.52867
3017,0.001417,0.0622398,-1.52867
3018,0.001418,0.0622398,-1.52412
3019,0.001419,0.0622398,-1.52412
3020,0.00142,0.0622398,-1.51956
3021,0.001421,0.0622398,-1.51653
3022,0.001422,0.0622398,-1.51501
3023,0.001423,0.0622398,-1.51197
3024,0.001424,0.0622398,-1.50742
3025,0.001425,0.0622398,-1.50742
3026,0.001426,0.0576857,-1.50286
3027,0.001427,0.0592037,-1.49983
3028,0.001428,0.0592037,-1.49679
3029,0.001429,0.0561676,-1.49224
3030,0.00143,0.0561676,-1.4892
3031,0.001431,0.0561676,-1.48617
3032,0.001432,0.0561676,-1.48313
3033,0.001433,0.0561676,-1.48009
3034,0.001434,0.0561676,-1.47554
3035,0.001435,0.0531316,-1.47098
3036,0.001436,0.0546496,-1.46795
3037,0.001437,0.0546496,-1.46643
3038,0.001438,0.0531316,-1.46036
3039,0.001439,0.0561676,-1.45732
3040,0.00144,0.0546496,-1.45429
3041,0.001441,0.0516135,-1.45277
3042,0.001442,0.0516135,-1.44518
3043,0.001443,0.0516135,-1.44366
3044,0.001444,0.0500955,-1.43759
3045,0.001445,0.0516135,-1.43607
3046,0.001446,0.0470594,-1.42848
3047,0.001447,0.0485774,-1.42544
3048,0.001448,0.0485774,-1.41937
3049,0.001449,0.0485774,-1.41482
3050,0.00145,0.0485774,-1.41026
3051,0.001451,0.0485774,-1.40723
3052,0.001452,0.0500955,-1.40115
3053,0.001453,0.0470594,-1.39812
3054,0.001454,0.0485774,-1.39508
3055,0.001455,0.0485774,-1.38901
3056,0.001456,0.0425052,-1.38446
3057,0.001457,0.0440233,-1.37838
3058,0.001458,0.0440233,-1.37383
3059,0.001459,0.0425052,-1.36928
3060,0.00146,0.0394692,-1.3632
3061,0.001461,0.0409872,-1.36017
3062,0.001462,0.0394692,-1.35258
3063,0.001463,0.0409872,-1.34651
3064,0.001464,0.0409872,-1.34347
3065,0.001465,0.0409872,-1.3374
3066,0.001466,0.0409872,-1.33132
3067,0.001467,0.0394692,-1.32525
3068,0.001468,0.0394692,-1.32222
3069,0.001469,0.0379511,-1.31614
3070,0.00147,0.034915,-1.30855
3071,0.001471,0.0364331,-1.304
3072,0.001472,0.0364331,-1.29793
3073,0.001473,0.034915,-1.29186
3074,0.001474,0.0318789,-1.28427
3075,0.001475,0.033397,-1.28123
3076,0.001476,0.033397,-1.27364
3077,0.001477,0.0303609,-1.26757
3078,0.001478,0.0318789,-1.25998
3079,0.001479,0.0318789,-1.2539
3080,0.00148,0.0318789,-1.24935
3081,0.001481,0.033397,-1.24176
3082,0.001482,0.0303609,-1.23721
3083,0.001483,0.0288428,-1.23113
3084,0.001484,0.0288428,-1.22506
3085,0.001485,0.0273248,-1.21747
3086,0.001486,0.0273248,-1.2114
3087,0.001487,0.0273248,-1.20381
3088,0.001488,0.0258068,-1.19774
3089,0.001489,0.0258068,-1.19015
3090,0.00149,0.0258068,-1.18407
3091,0.001491,0.0258068,-1.178
3092,0.001492,0.0242887,-1.17041
3093,0.001493,0.0258068,-1.16434
3094,0.001494,0.0258068,-1.15675
3095,0.001495,0.0197346,-1.14916
3096,0.001496,0.0212526,-1.14309
3097,0.001497,0.0197346,-1.1355
3098,0.001498,0.0242887,-1.12942
3099,0.001499,0.0182165,-1.12183
3100,0.0015,0.0182165,-1.11424
3101,0.001501,0.0182165,-1.10362
3102,0.001502,0.0182165,-1.09906
3103,0.001503,0.0182165,-1.09299
3104,0.001504,0.0197346,-1.0854
3105,0.001505,0.0166985,-1.07781
3106,0.001506,0.0166985,-1.0687
3107,0.001507,0.0166985,-1.06415
3108,0.001508,0.0136624,-1.05352
3109,0.001509,0.0151804,-1.04745
3110,0.00151,0.0136624,-1.04138
3111,0.001511,0.0106263,-1.03075
3112,0.001512,0.0121444,-1.02316
3113,0.001513,0.0121444,-1.01709
3114,0.001514,0.0121444,-1.00646
3115,0.001515,0.0121444,-1.00039
3116,0.001516,0.0121444,-0.994319
3117,0.001517,0.0106263,-0.983693
3118,0.001518,0.0106263,-0.976102
3119,0.001519,0.00910827,-0.97003
3120,0.00152,0.00607218,-0.960922
3121,0.001521,0.00910827,-0.953332
3122,0.001522,0.00759022,-0.945742
3123,0.001523,0.00455413,-0.933597
3124,0.001524,0.00607218,-0.927525
3125,0.001525,0.00607218,-0.916899
3126,0.001526,0.00607218,-0.909309
3127,0.001527,0.00607218,-0.901718
3128,0.001528,0.00607218,-0.89261
3129,0.001529,0.00455413,-0.88502
3130,0.00153,0.00455413,-0.87743
3131,0.001531,0.00151804,-0.866803
3132,0.001532,0.00303609,-0.860731
3133,0.001533,0.00303609,-0.850105
3134,0.001534,0,-0.840997
3135,0.001535,-0.00455413,-0.834924
3136,0.001536,-0.00455413,-0.824298
3137,0.001537,0,-0.81519
3138,0.001538,0,-0.804563
3139,0.001539,0,-0.796973
3140,0.00154,0,-0.790901
3141,0.001541,0,-0.778757
3142,0.001542,-0.00455413,-0.772685
3143,0.001543,-0.00607218,-0.762058
3144,0.001544,-0.00607218,-0.754468
3145,0.001545,-0.00455413,-0.743842
3146,0.001546,-0.00910827,-0.733215
3147,0.001547,-0.00910827,-0.724107
3148,0.001548,-0.00910827,-0.718035
3149,0.001549,-0.00910827,-0.705891
3150,0.00155,-0.00910827,-0.696782
3151,0.001551,-0.00910827,-0.687674
3152,0.001552,-0.00910827,-0.678566
3153,0.001553,-0.00910827,-0.669458
3154,0.001554,-0.00910827,-0.660349
3155,0.001555,-0.00910827,-0.652759
3156,0.001556,-0.00910827,-0.642133
3157,0.001557,-0.00910827,-0.633024
3158,0.001558,-0.0121444,-0.626952
3159,0.001559,-0.0136624,-0.616326
3160,0.00156,-0.0106263,-0.608736
3161,0.001561,-0.0121444,-0.599627
3162,0.001562,-0.0121444,-0.589001
3163,0.001563,-0.0121444,-0.579893
3164,0.001564,-0.0106263,-0.572303
3165,0.001565,-0.0136624,-0.564712
3166,0.001566,-0.0166985,-0.554086
3167,0.001567,-0.0136624,-0.546496
3168,0.001568,-0.0166985,-0.537388
3169,0.001569,-0.0166985,-0.526761
3170,0.00157,-0.0197346,-0.516135
3171,0.001571,-0.0197346,-0.510063
3172,0.001572,-0.0197346,-0.497919
3173,0.001573,-0.0197346,-0.490328
3174,0.001574,-0.0197346,-0.479702
3175,0.001575,-0.0197346,-0.470594
3176,0.001576,-0.0182165,-0.461485
3177,0.001577,-0.0212526,-0.452377
3178,0.001578,-0.0212526,-0.444787
3179,0.001579,-0.0227707,-0.432643
3180,0.00158,-0.0227707,-0.425052
3181,0.001581,-0.0258068,-0.415944
3182,0.001582,-0.0258068,-0.405318
3183,0.001583,-0.0273248,-0.394692
3184,0.001584,-0.0273248,-0.387101
3185,0.001585,-0.0273248,-0.376475
3186,0.001586,-0.0273248,-0.365849
3187,0.001587,-0.0273248,-0.35674
3188,0.001588,-0.0258068,-0.347632
3189,0.001589,-0.0288428,-0.338524
3190,0.00159,-0.0288428,-0.329416
3191,0.001591,-0.0303609,-0.318789
3192,0.001592,-0.0288428,-0.309681
3193,0.001593,-0.0318789,-0.300573
3194,0.001594,-0.034915,-0.289946
3195,0.001595,-0.034915,-0.277802
3196,0.001596,-0.0318789,-0.268694
3197,0.001597,-0.0318789,-0.259586
3198,0.001598,-0.034915,-0.248959
3199,0.001599,-0.034915,-0.239851
